#Time	x(km)		y(km)		z(km)		alt(km)	    relVel		dwnrng(km)	 Q(kPa)	   Fuel(tons) dV_tot	  dV_grav	  dv_drag		 throttle	accel (g's)
-59.10	-2672.329	-4516.862	 3624.534	   0.000	   0.000	0.000	     0.000	   385.000	     0.000	     0.000	     0.000	     0.000	     0.000
-58.10	-2672.329	-4516.862	 3624.534	   0.000	   0.000	0.000	     0.000	   385.000	     0.000	     0.000	     0.000	     0.000	     0.000
-57.10	-2672.329	-4516.862	 3624.534	   0.000	   0.000	0.000	     0.000	   385.000	     0.000	     0.000	     0.000	     0.000	     0.000
-56.10	-2672.329	-4516.862	 3624.534	   0.000	   0.000	0.000	     0.000	   385.000	     0.000	     0.000	     0.000	     0.000	     0.000
-55.10	-2672.329	-4516.862	 3624.534	   0.000	   0.000	0.000	     0.000	   385.000	     0.000	     0.000	     0.000	     0.000	     0.000
-54.10	-2672.329	-4516.862	 3624.534	   0.000	   0.000	0.000	     0.000	   385.000	     0.000	     0.000	     0.000	     0.000	     0.000
-53.10	-2672.329	-4516.862	 3624.534	   0.000	   0.000	0.000	     0.000	   385.000	     0.000	     0.000	     0.000	     0.000	     0.000
-52.10	-2672.329	-4516.862	 3624.534	   0.000	   0.000	0.000	     0.000	   385.000	     0.000	     0.000	     0.000	     0.000	     0.000
-51.10	-2672.329	-4516.862	 3624.534	   0.000	   0.000	0.000	     0.000	   385.000	     0.000	     0.000	     0.000	     0.000	     0.000
-50.10	-2672.329	-4516.862	 3624.534	   0.000	   0.000	0.000	     0.000	   385.000	     0.000	     0.000	     0.000	     0.000	     0.000
-49.10	-2672.329	-4516.862	 3624.534	   0.000	   0.000	0.000	     0.000	   385.000	     0.000	     0.000	     0.000	     0.000	     0.000
-48.10	-2672.329	-4516.862	 3624.534	   0.000	   0.000	0.000	     0.000	   385.000	     0.000	     0.000	     0.000	     0.000	     0.000
-47.10	-2672.329	-4516.862	 3624.534	   0.000	   0.000	0.000	     0.000	   385.000	     0.000	     0.000	     0.000	     0.000	     0.000
-46.10	-2672.329	-4516.862	 3624.534	   0.000	   0.000	0.000	     0.000	   385.000	     0.000	     0.000	     0.000	     0.000	     0.000
-45.10	-2672.329	-4516.862	 3624.534	   0.000	   0.000	0.000	     0.000	   385.000	     0.000	     0.000	     0.000	     0.000	     0.000
-44.10	-2672.329	-4516.862	 3624.534	   0.000	   0.000	0.000	     0.000	   385.000	     0.000	     0.000	     0.000	     0.000	     0.000
-43.10	-2672.329	-4516.862	 3624.534	   0.000	   0.000	0.000	     0.000	   385.000	     0.000	     0.000	     0.000	     0.000	     0.000
-42.10	-2672.329	-4516.862	 3624.534	   0.000	   0.000	0.000	     0.000	   385.000	     0.000	     0.000	     0.000	     0.000	     0.000
-41.10	-2672.329	-4516.862	 3624.534	   0.000	   0.000	0.000	     0.000	   385.000	     0.000	     0.000	     0.000	     0.000	     0.000
-40.10	-2672.329	-4516.862	 3624.534	   0.000	   0.000	0.000	     0.000	   385.000	     0.000	     0.000	     0.000	     0.000	     0.000
-39.10	-2672.329	-4516.862	 3624.534	   0.000	   0.000	0.000	     0.000	   385.000	     0.000	     0.000	     0.000	     0.000	     0.000
-38.10	-2672.329	-4516.862	 3624.534	   0.000	   0.000	0.000	     0.000	   385.000	     0.000	     0.000	     0.000	     0.000	     0.000
-37.10	-2672.329	-4516.862	 3624.534	   0.000	   0.000	0.000	     0.000	   385.000	     0.000	     0.000	     0.000	     0.000	     0.000
-36.10	-2672.329	-4516.862	 3624.534	   0.000	   0.000	0.000	     0.000	   385.000	     0.000	     0.000	     0.000	     0.000	     0.000
-35.10	-2672.329	-4516.862	 3624.534	   0.000	   0.000	0.000	     0.000	   385.000	     0.000	     0.000	     0.000	     0.000	     0.000
-34.10	-2672.329	-4516.862	 3624.534	   0.000	   0.000	0.000	     0.000	   385.000	     0.000	     0.000	     0.000	     0.000	     0.000
-33.10	-2672.329	-4516.862	 3624.534	   0.000	   0.000	0.000	     0.000	   385.000	     0.000	     0.000	     0.000	     0.000	     0.000
-32.10	-2672.329	-4516.862	 3624.534	   0.000	   0.000	0.000	     0.000	   385.000	     0.000	     0.000	     0.000	     0.000	     0.000
-31.10	-2672.329	-4516.862	 3624.534	   0.000	   0.000	0.000	     0.000	   385.000	     0.000	     0.000	     0.000	     0.000	     0.000
-30.10	-2672.329	-4516.862	 3624.534	   0.000	   0.000	0.000	     0.000	   385.000	     0.000	     0.000	     0.000	     0.000	     0.000
-29.10	-2672.329	-4516.862	 3624.534	   0.000	   0.000	0.000	     0.000	   385.000	     0.000	     0.000	     0.000	     0.000	     0.000
-28.10	-2672.329	-4516.862	 3624.534	   0.000	   0.000	0.000	     0.000	   385.000	     0.000	     0.000	     0.000	     0.000	     0.000
-27.10	-2672.329	-4516.862	 3624.534	   0.000	   0.000	0.000	     0.000	   385.000	     0.000	     0.000	     0.000	     0.000	     0.000
-26.10	-2672.329	-4516.862	 3624.534	   0.000	   0.000	0.000	     0.000	   385.000	     0.000	     0.000	     0.000	     0.000	     0.000
-25.10	-2672.329	-4516.862	 3624.534	   0.000	   0.000	0.000	     0.000	   385.000	     0.000	     0.000	     0.000	     0.000	     0.000
-24.10	-2672.329	-4516.862	 3624.534	   0.000	   0.000	0.000	     0.000	   385.000	     0.000	     0.000	     0.000	     0.000	     0.000
-23.10	-2672.329	-4516.862	 3624.534	   0.000	   0.000	0.000	     0.000	   385.000	     0.000	     0.000	     0.000	     0.000	     0.000
-22.10	-2672.329	-4516.862	 3624.534	   0.000	   0.000	0.000	     0.000	   385.000	     0.000	     0.000	     0.000	     0.000	     0.000
-21.10	-2672.329	-4516.862	 3624.534	   0.000	   0.000	0.000	     0.000	   385.000	     0.000	     0.000	     0.000	     0.000	     0.000
-20.10	-2672.329	-4516.862	 3624.534	   0.000	   0.000	0.000	     0.000	   385.000	     0.000	     0.000	     0.000	     0.000	     0.000
-19.10	-2672.329	-4516.862	 3624.534	   0.000	   0.000	0.000	     0.000	   385.000	     0.000	     0.000	     0.000	     0.000	     0.000
-18.10	-2672.329	-4516.862	 3624.534	   0.000	   0.000	0.000	     0.000	   385.000	     0.000	     0.000	     0.000	     0.000	     0.000
-17.10	-2672.329	-4516.862	 3624.534	   0.000	   0.000	0.000	     0.000	   385.000	     0.000	     0.000	     0.000	     0.000	     0.000
-16.10	-2672.329	-4516.862	 3624.534	   0.000	   0.000	0.000	     0.000	   385.000	     0.000	     0.000	     0.000	     0.000	     0.000
-15.10	-2672.329	-4516.862	 3624.534	   0.000	   0.000	0.000	     0.000	   385.000	     0.000	     0.000	     0.000	     0.000	     0.000
-14.10	-2672.329	-4516.862	 3624.534	   0.000	   0.000	0.000	     0.000	   385.000	     0.000	     0.000	     0.000	     0.000	     0.000
-13.10	-2672.329	-4516.862	 3624.534	   0.000	   0.000	0.000	     0.000	   385.000	     0.000	     0.000	     0.000	     0.000	     0.000
-12.10	-2672.329	-4516.862	 3624.534	   0.000	   0.000	0.000	     0.000	   385.000	     0.000	     0.000	     0.000	     0.000	     0.000
-11.10	-2672.329	-4516.862	 3624.534	   0.000	   0.000	0.000	     0.000	   385.000	     0.000	     0.000	     0.000	     0.000	     0.000
-10.10	-2672.329	-4516.862	 3624.534	   0.000	   0.000	0.000	     0.000	   385.000	     0.000	     0.000	     0.000	     0.000	     0.000
 -9.10	-2672.329	-4516.862	 3624.534	   0.000	   0.000	0.000	     0.000	   385.000	     0.000	     0.000	     0.000	     0.000	     0.000
 -8.10	-2672.329	-4516.862	 3624.534	   0.000	   0.000	0.000	     0.000	   385.000	     0.000	     0.000	     0.000	     0.000	     0.000
 -7.10	-2672.329	-4516.862	 3624.534	   0.000	   0.000	0.000	     0.000	   385.000	     0.000	     0.000	     0.000	     0.000	     0.000
 -6.10	-2672.329	-4516.862	 3624.534	   0.000	   0.000	0.000	     0.000	   385.000	     0.000	     0.000	     0.000	     0.000	     0.000
 -5.10	-2672.329	-4516.862	 3624.534	   0.000	   0.000	0.000	     0.000	   385.000	     0.000	     0.000	     0.000	     0.000	     0.000
 -4.10	-2672.329	-4516.862	 3624.534	   0.000	   0.000	0.000	     0.000	   385.000	     0.000	     0.000	     0.000	     0.000	     0.000
 -3.10	-2672.329	-4516.862	 3624.534	   0.000	   0.000	0.000	     0.000	   385.000	     0.000	     0.000	     0.000	     0.000	     0.000
 -2.10	-2672.329	-4516.862	 3624.534	   0.000	   0.000	0.000	     0.000	   385.000	     0.000	     0.000	     0.000	     0.000	     0.000
 -1.10	-2672.329	-4516.862	 3624.534	   0.000	   0.000	0.000	     0.000	   383.097	    10.406	     0.000	     0.000	     1.000	     0.000
 -0.10	-2672.329	-4516.862	 3624.534	   0.000	   0.000	0.000	     0.000	   380.982	    22.015	     0.000	     0.000	     1.000	     0.000
  0.00	-2672.329	-4516.862	 3624.534	   0.000	   0.000	0.000	     0.000	   380.770	    23.178	     0.000	     0.000	     1.000	     0.000
  1.00	-2672.329	-4516.863	 3624.534	   0.001	   1.704	0.000	     0.001	   378.867	    33.672	     0.000	     0.000	     1.000	     0.192
  2.00	-2672.331	-4516.865	 3624.536	   0.004	   3.640	0.000	     0.007	   376.752	    45.379	     0.000	     0.000	     1.000	     0.198
  3.00	-2672.333	-4516.868	 3624.538	   0.008	   5.625	0.000	     0.018	   374.637	    57.137	     0.000	     0.000	     1.000	     0.203
  4.00	-2672.336	-4516.873	 3624.542	   0.015	   7.662	0.000	     0.034	   372.522	    68.945	     0.000	     0.000	     1.000	     0.208
  5.00	-2672.340	-4516.879	 3624.547	   0.024	   9.751	0.001	     0.056	   370.407	    80.806	     0.000	     0.000	     1.000	     0.213
  6.00	-2672.345	-4516.887	 3624.554	   0.035	  11.892	0.001	     0.084	   368.292	    92.719	     0.000	     0.000	     1.000	     0.219
  7.00	-2672.350	-4516.896	 3624.561	   0.048	  14.086	0.001	     0.118	   366.178	   104.685	     0.000	     0.000	     1.000	     0.224
  8.00	-2672.357	-4516.907	 3624.570	   0.063	  16.334	0.002	     0.159	   364.063	   116.705	     0.000	     0.000	     1.000	     0.230
  9.00	-2672.365	-4516.920	 3624.579	   0.081	  18.637	0.002	     0.207	   361.948	   128.781	     0.000	     0.000	     1.000	     0.235
 10.00	-2672.374	-4516.934	 3624.590	   0.101	  20.996	0.002	     0.263	   359.833	   140.912	     0.000	     0.000	     1.000	     0.241
 11.00	-2672.384	-4516.950	 3624.603	   0.123	  23.412	0.003	     0.327	   357.718	   153.099	     0.000	     0.000	     1.000	     0.247
 12.00	-2672.395	-4516.968	 3624.616	   0.148	  25.884	0.004	     0.400	   355.603	   165.344	     0.000	     0.000	     1.000	     0.253
 13.00	-2672.407	-4516.987	 3624.631	   0.175	  28.415	0.005	     0.481	   353.488	   177.648	     0.000	     0.000	     1.000	     0.259
 14.00	-2672.420	-4517.009	 3624.648	   0.205	  31.004	0.005	     0.572	   351.373	   190.010	     0.000	     0.000	     1.000	     0.265
 15.00	-2672.434	-4517.032	 3624.665	   0.237	  33.653	0.007	     0.672	   349.258	   202.433	     0.000	     0.000	     1.000	     0.271
 16.00	-2672.450	-4517.057	 3624.684	   0.273	  36.362	0.008	     0.783	   347.144	   214.916	     0.000	     0.000	     1.000	     0.277
 17.00	-2672.467	-4517.084	 3624.705	   0.310	  39.133	0.009	     0.904	   345.029	   227.461	     0.000	     0.000	     1.000	     0.283
 18.00	-2672.484	-4517.114	 3624.727	   0.351	  41.966	0.010	     1.036	   342.914	   240.070	     0.000	     0.000	     1.000	     0.290
 19.00	-2672.504	-4517.145	 3624.751	   0.395	  44.861	0.012	     1.180	   340.799	   252.742	     0.000	     0.000	     1.000	     0.296
 20.00	-2672.524	-4517.179	 3624.776	   0.441	  47.821	0.014	     1.335	   338.684	   265.479	     0.000	     0.000	     1.000	     0.303
 21.00	-2672.546	-4517.214	 3624.803	   0.490	  50.846	0.015	     1.503	   336.569	   278.281	     0.000	     0.000	     1.000	     0.309
 22.00	-2672.569	-4517.252	 3624.831	   0.543	  53.936	0.017	     1.683	   334.454	   291.151	     0.000	     0.000	     1.000	     0.316
 23.00	-2672.594	-4517.292	 3624.861	   0.599	  57.093	0.019	     1.877	   332.339	   304.089	     0.000	     0.000	     1.000	     0.323
 24.00	-2672.620	-4517.335	 3624.893	   0.657	  60.318	0.022	     2.084	   330.224	   317.095	     0.000	     0.000	     1.000	     0.330
 25.00	-2672.647	-4517.379	 3624.926	   0.719	  63.612	0.024	     2.304	   328.110	   330.172	     0.000	     0.000	     1.000	     0.337
 26.00	-2672.676	-4517.427	 3624.962	   0.785	  66.975	0.026	     2.539	   325.995	   343.319	     0.000	     0.000	     1.000	     0.344
 27.00	-2672.706	-4517.476	 3624.999	   0.854	  70.410	0.029	     2.788	   323.880	   356.539	     0.000	     0.000	     1.000	     0.351
 28.00	-2672.738	-4517.528	 3625.038	   0.926	  73.916	0.032	     3.052	   321.765	   369.832	     0.000	     0.000	     1.000	     0.359
 29.00	-2672.771	-4517.583	 3625.079	   1.002	  77.495	0.034	     3.331	   319.650	   383.200	     0.000	     0.000	     1.000	     0.366
 30.00	-2672.806	-4517.640	 3625.122	   1.081	  81.148	0.037	     3.625	   317.535	   396.644	     0.000	     0.000	     1.000	     0.374
 31.00	-2672.843	-4517.700	 3625.167	   1.164	  84.876	0.041	     3.934	   315.420	   410.164	     0.000	     0.000	     1.000	     0.382
 32.00	-2672.881	-4517.763	 3625.214	   1.251	  88.680	0.044	     4.259	   313.305	   423.762	     0.000	     0.000	     1.000	     0.389
 33.00	-2672.921	-4517.828	 3625.263	   1.342	  92.561	0.047	     4.599	   311.190	   437.440	     0.000	     0.000	     1.000	     0.397
 34.00	-2672.963	-4517.897	 3625.314	   1.437	  96.521	0.051	     4.955	   309.076	   451.198	     0.000	     0.000	     1.000	     0.405
 35.00	-2673.006	-4517.968	 3625.367	   1.535	 100.561	0.054	     5.327	   306.961	   465.038	     0.000	     0.000	     1.000	     0.414
 36.00	-2673.052	-4518.042	 3625.423	   1.638	 104.681	0.058	     5.715	   304.846	   478.961	     0.000	     0.000	     1.000	     0.422
 37.00	-2673.099	-4518.119	 3625.481	   1.745	 108.883	0.062	     6.119	   302.731	   492.968	     0.000	     0.000	     1.000	     0.430
 38.00	-2673.148	-4518.199	 3625.541	   1.856	 113.168	0.066	     6.538	   300.616	   507.060	     0.000	     0.000	     1.000	     0.439
 39.00	-2673.198	-4518.282	 3625.603	   1.972	 117.537	0.070	     6.972	   298.501	   521.239	     0.000	     0.000	     1.000	     0.448
 40.00	-2673.251	-4518.368	 3625.668	   2.092	 121.992	0.075	     7.421	   296.386	   535.507	     0.000	     0.000	     1.000	     0.456
 41.00	-2673.306	-4518.458	 3625.735	   2.216	 126.533	0.079	     7.886	   294.271	   549.864	     0.000	     0.000	     1.000	     0.465
 42.00	-2673.363	-4518.551	 3625.805	   2.345	 131.163	0.084	     8.365	   292.156	   564.311	     0.000	     0.000	     1.000	     0.474
 43.00	-2673.421	-4518.647	 3625.878	   2.479	 135.882	0.089	     8.857	   290.042	   578.851	     0.000	     0.000	     1.000	     0.483
 44.00	-2673.482	-4518.747	 3625.952	   2.617	 140.691	0.094	     9.364	   287.927	   593.484	     0.000	     0.000	     1.000	     0.493
 45.00	-2673.545	-4518.850	 3626.030	   2.760	 145.592	0.099	     9.883	   285.812	   608.212	     0.000	     0.000	     1.000	     0.502
 46.00	-2673.611	-4518.956	 3626.110	   2.909	 150.587	0.104	    10.414	   283.697	   623.036	     0.000	     0.000	     1.000	     0.512
 47.00	-2673.678	-4519.067	 3626.193	   3.062	 155.676	0.109	    10.957	   281.582	   637.958	     0.000	     0.000	     1.000	     0.521
 48.00	-2673.748	-4519.181	 3626.279	   3.220	 160.860	0.115	    11.510	   279.467	   652.978	     0.000	     0.000	     1.000	     0.531
 49.00	-2673.820	-4519.298	 3626.368	   3.384	 166.142	0.121	    12.073	   277.352	   668.099	     0.000	     0.000	     1.000	     0.541
 50.00	-2673.894	-4519.420	 3626.460	   3.553	 171.520	0.126	    12.644	   275.237	   683.321	     0.000	     0.000	     1.000	     0.551
 51.00	-2673.971	-4519.545	 3626.554	   3.727	 176.994	0.133	    13.222	   273.122	   698.647	     0.000	     0.000	     1.000	     0.561
 52.00	-2674.050	-4519.674	 3626.652	   3.907	 182.567	0.139	    13.806	   271.008	   714.077	     0.000	     0.000	     1.000	     0.571
 53.00	-2674.131	-4519.808	 3626.753	   4.093	 188.239	0.145	    14.393	   268.893	   729.613	     0.000	     0.000	     1.000	     0.581
 54.00	-2674.216	-4519.945	 3626.857	   4.284	 194.012	0.152	    14.984	   266.778	   745.256	     0.000	     0.000	     1.000	     0.591
 55.00	-2674.302	-4520.087	 3626.964	   4.481	 199.886	0.158	    15.576	   264.663	   761.008	     0.000	     0.000	     1.000	     0.602
 56.00	-2674.392	-4520.233	 3627.074	   4.684	 205.867	0.165	    16.168	   262.548	   776.869	     0.000	     0.000	     1.000	     0.614
 57.00	-2674.484	-4520.383	 3627.187	   4.893	 211.953	0.173	    16.758	   260.433	   792.843	     0.000	     0.000	     1.000	     0.625
 58.00	-2674.579	-4520.538	 3627.303	   5.109	 218.143	0.181	    17.344	   258.318	   808.929	     0.000	     0.000	     1.000	     0.636
 59.00	-2674.677	-4520.697	 3627.423	   5.330	 224.440	0.190	    17.924	   256.203	   825.129	     0.000	     0.000	     1.000	     0.647
 60.00	-2674.779	-4520.861	 3627.545	   5.558	 230.845	0.200	    18.496	   254.088	   841.445	     0.000	     0.000	     1.000	     0.658
 61.00	-2674.883	-4521.030	 3627.670	   5.792	 237.358	0.210	    19.058	   251.974	   857.878	     0.000	     0.000	     1.000	     0.669
 62.00	-2674.991	-4521.203	 3627.799	   6.033	 243.980	0.221	    19.607	   249.859	   874.430	     0.000	     0.000	     1.000	     0.680
 63.00	-2675.102	-4521.381	 3627.931	   6.280	 250.713	0.233	    20.143	   247.744	   891.101	     0.000	     0.000	     1.000	     0.692
 64.00	-2675.216	-4521.565	 3628.066	   6.534	 257.559	0.245	    20.661	   245.629	   907.893	     0.000	     0.000	     1.000	     0.703
 65.00	-2675.334	-4521.753	 3628.204	   6.795	 264.517	0.259	    21.160	   243.514	   924.808	     0.000	     0.000	     1.000	     0.715
 66.00	-2675.455	-4521.947	 3628.345	   7.063	 271.589	0.273	    21.638	   241.399	   941.847	     0.000	     0.000	     1.000	     0.727
 67.00	-2675.580	-4522.146	 3628.490	   7.338	 278.777	0.289	    22.092	   239.284	   959.011	     0.000	     0.000	     1.000	     0.739
 68.00	-2675.708	-4522.350	 3628.638	   7.621	 286.081	0.305	    22.520	   237.169	   976.301	     0.000	     0.000	     1.000	     0.751
 69.00	-2675.841	-4522.560	 3628.790	   7.910	 293.503	0.323	    22.919	   235.054	   993.719	     0.000	     0.000	     1.000	     0.763
 70.00	-2675.977	-4522.775	 3628.945	   8.207	 301.045	0.341	    23.287	   232.940	  1011.266	     0.000	     0.000	     1.000	     0.775
 71.00	-2676.117	-4522.996	 3629.103	   8.512	 308.706	0.361	    23.622	   230.825	  1028.944	     0.000	     0.000	     1.000	     0.788
 72.00	-2676.260	-4523.222	 3629.265	   8.824	 316.490	0.382	    23.921	   228.710	  1046.754	     0.000	     0.000	     1.000	     0.800
 73.00	-2676.408	-4523.454	 3629.431	   9.144	 324.397	0.404	    24.182	   226.595	  1064.696	     0.000	     0.000	     1.000	     0.813
 74.00	-2676.560	-4523.692	 3629.600	   9.472	 332.428	0.427	    24.403	   224.480	  1082.773	     0.000	     0.000	     1.000	     0.826
 75.00	-2676.716	-4523.937	 3629.773	   9.808	 340.586	0.451	    24.582	   222.365	  1100.985	     0.000	     0.000	     1.000	     0.839
 76.00	-2676.877	-4524.187	 3629.949	  10.153	 348.871	0.477	    24.716	   220.250	  1119.334	     0.000	     0.000	     1.000	     0.853
 77.00	-2677.042	-4524.443	 3630.129	  10.505	 357.286	0.505	    24.805	   218.135	  1137.822	     0.000	     0.000	     1.000	     0.866
 78.00	-2677.211	-4524.706	 3630.312	  10.866	 365.831	0.533	    24.846	   216.021	  1156.448	     0.000	     0.000	     1.000	     0.880
 79.00	-2677.385	-4524.975	 3630.500	  11.235	 374.511	0.564	    24.681	   213.906	  1175.215	     0.000	     0.000	     1.000	     0.894
 80.00	-2677.563	-4525.250	 3630.691	  11.613	 383.329	0.595	    24.371	   211.791	  1194.124	     0.000	     0.000	     1.000	     0.908
 81.00	-2677.746	-4525.532	 3630.886	  12.000	 392.287	0.629	    24.024	   209.676	  1213.175	     0.000	     0.000	     1.000	     0.922
 82.00	-2677.934	-4525.821	 3631.084	  12.396	 401.387	0.664	    23.641	   207.561	  1232.370	     0.000	     0.000	     1.000	     0.937
 83.00	-2678.127	-4526.117	 3631.287	  12.800	 410.631	0.701	    23.223	   205.446	  1251.709	     0.000	     0.000	     1.000	     0.952
 84.00	-2678.325	-4526.419	 3631.493	  13.214	 420.022	0.739	    22.772	   203.331	  1271.194	     0.000	     0.000	     1.000	     0.968
 85.00	-2678.528	-4526.729	 3631.704	  13.638	 429.571	0.780	    22.291	   201.216	  1290.825	     0.000	     0.000	     1.000	     0.984
 86.10	-2678.757	-4527.077	 3631.940	  14.114	 440.260	0.827	    21.731	   198.890	  1312.590	     0.000	     0.000	     1.000	     1.002
 87.10	-2678.971	-4527.402	 3632.159	  14.558	 450.149	0.871	    21.194	   196.775	  1332.533	     0.000	     0.000	     1.000	     1.019
 88.10	-2679.190	-4527.734	 3632.382	  15.011	 460.202	0.917	    20.633	   194.660	  1352.626	     0.000	     0.000	     1.000	     1.036
 89.10	-2679.415	-4528.074	 3632.609	  15.474	 470.421	0.966	    20.051	   192.545	  1372.870	     0.000	     0.000	     1.000	     1.053
 90.10	-2679.646	-4528.421	 3632.840	  15.948	 480.807	1.017	    19.449	   190.430	  1393.266	     0.000	     0.000	     1.000	     1.071
 91.10	-2679.882	-4528.776	 3633.076	  16.431	 491.363	1.070	    18.831	   188.315	  1413.817	     0.000	     0.000	     1.000	     1.088
 92.10	-2680.124	-4529.139	 3633.316	  16.926	 502.091	1.125	    18.198	   186.201	  1434.522	     0.000	     0.000	     1.000	     1.106
 93.10	-2680.372	-4529.509	 3633.560	  17.430	 512.990	1.182	    17.552	   184.086	  1455.384	     0.000	     0.000	     1.000	     1.124
 94.10	-2680.626	-4529.889	 3633.808	  17.946	 524.065	1.242	    16.897	   181.971	  1476.404	     0.000	     0.000	     1.000	     1.142
 95.10	-2680.887	-4530.276	 3634.061	  18.473	 535.315	1.304	    16.235	   179.856	  1497.583	     0.000	     0.000	     1.000	     1.160
 96.10	-2681.153	-4530.672	 3634.318	  19.010	 546.742	1.369	    15.567	   177.741	  1518.923	     0.000	     0.000	     1.000	     1.178
 97.10	-2681.426	-4531.076	 3634.580	  19.559	 558.349	1.437	    14.898	   175.626	  1540.425	     0.000	     0.000	     1.000	     1.197
 98.10	-2681.706	-4531.489	 3634.847	  20.120	 570.137	1.507	    14.221	   173.511	  1562.091	     0.000	     0.000	     1.000	     1.215
 99.10	-2681.992	-4531.911	 3635.118	  20.692	 582.108	1.579	    13.492	   171.396	  1583.923	     0.000	     0.000	     1.000	     1.234
100.10	-2682.285	-4532.341	 3635.393	  21.276	 594.264	1.655	    12.774	   169.281	  1605.922	     0.000	     0.000	     1.000	     1.253
101.10	-2682.585	-4532.781	 3635.674	  21.871	 606.607	1.733	    12.067	   167.167	  1628.091	     0.000	     0.000	     1.000	     1.273
102.10	-2682.892	-4533.230	 3635.959	  22.479	 619.139	1.815	    11.375	   165.052	  1650.430	     0.000	     0.000	     1.000	     1.292
103.10	-2683.206	-4533.689	 3636.249	  23.100	 631.860	1.899	    10.698	   162.937	  1672.943	     0.000	     0.000	     1.000	     1.312
104.10	-2683.528	-4534.156	 3636.543	  23.733	 644.774	1.986	    10.039	   160.822	  1695.631	     0.000	     0.000	     1.000	     1.331
105.10	-2683.856	-4534.634	 3636.843	  24.378	 657.882	2.077	     9.400	   158.707	  1718.496	     0.000	     0.000	     1.000	     1.351
106.10	-2684.193	-4535.121	 3637.147	  25.037	 671.185	2.171	     8.780	   156.592	  1741.545	     0.000	     0.000	     1.000	     1.372
107.10	-2684.537	-4535.619	 3637.457	  25.708	 684.876	2.268	     0.000	   154.477	  1764.822	     0.000	     0.000	     1.000	     1.411
108.10	-2684.889	-4536.126	 3637.772	  26.394	 698.751	2.368	     0.000	   152.362	  1788.277	     0.000	     0.000	     1.000	     1.430
109.10	-2685.248	-4536.644	 3638.092	  27.092	 712.813	2.472	     0.000	   150.248	  1811.915	     0.000	     0.000	     1.000	     1.449
110.10	-2685.616	-4537.173	 3638.417	  27.805	 727.066	2.580	     0.000	   148.133	  1835.738	     0.000	     0.000	     1.000	     1.469
111.10	-2685.993	-4537.712	 3638.747	  28.531	 741.512	2.691	     0.000	   146.018	  1859.748	     0.000	     0.000	     1.000	     1.489
112.10	-2686.377	-4538.262	 3639.083	  29.272	 756.153	2.806	     0.000	   143.903	  1883.949	     0.000	     0.000	     1.000	     1.509
113.10	-2686.770	-4538.823	 3639.424	  30.027	 770.994	2.925	     0.000	   141.788	  1908.344	     0.000	     0.000	     1.000	     1.529
114.10	-2687.172	-4539.394	 3639.770	  30.796	 786.038	3.047	     0.000	   139.673	  1932.935	     0.000	     0.000	     1.000	     1.550
115.10	-2687.583	-4539.977	 3640.122	  31.580	 801.287	3.173	     0.000	   137.558	  1957.727	     0.000	     0.000	     1.000	     1.572
116.10	-2688.002	-4540.572	 3640.479	  32.380	 816.745	3.304	     0.000	   135.443	  1982.722	     0.000	     0.000	     1.000	     1.593
117.10	-2688.431	-4541.178	 3640.842	  33.194	 832.416	3.438	     0.000	   133.328	  2007.924	     0.000	     0.000	     1.000	     1.615
118.10	-2688.868	-4541.796	 3641.210	  34.023	 848.302	3.577	     0.000	   131.214	  2033.336	     0.000	     0.000	     1.000	     1.637
119.10	-2689.315	-4542.425	 3641.585	  34.868	 864.408	3.720	     0.000	   129.099	  2058.962	     0.000	     0.000	     1.000	     1.660
120.10	-2689.772	-4543.067	 3641.964	  35.729	 880.737	3.867	     0.000	   126.984	  2084.805	     0.000	     0.000	     1.000	     1.683
121.10	-2690.238	-4543.720	 3642.350	  36.606	 897.294	4.019	     0.000	   124.869	  2110.869	     0.000	     0.000	     1.000	     1.706
122.10	-2690.714	-4544.386	 3642.742	  37.498	 914.081	4.175	     0.000	   122.754	  2137.158	     0.000	     0.000	     1.000	     1.730
123.10	-2691.200	-4545.065	 3643.139	  38.408	 931.103	4.336	     0.000	   120.639	  2163.676	     0.000	     0.000	     1.000	     1.754
124.10	-2691.696	-4545.756	 3643.542	  39.333	 948.364	4.501	     0.000	   118.524	  2190.426	     0.000	     0.000	     1.000	     1.779
125.10	-2692.202	-4546.460	 3643.952	  40.276	 965.868	4.671	     0.000	   116.409	  2217.414	     0.000	     0.000	     1.000	     1.804
126.10	-2692.718	-4547.177	 3644.367	  41.235	 983.620	4.846	     0.000	   114.294	  2244.643	     0.000	     0.000	     1.000	     1.830
127.10	-2693.246	-4547.907	 3644.789	  42.212	1001.623	5.026	     0.000	   112.180	  2272.117	     0.000	     0.000	     1.000	     1.856
128.10	-2693.783	-4548.651	 3645.216	  43.207	1019.883	5.212	     0.000	   110.065	  2299.841	     0.000	     0.000	     1.000	     1.882
129.10	-2694.332	-4549.408	 3645.650	  44.219	1038.404	5.402	     0.000	   107.950	  2327.820	     0.000	     0.000	     1.000	     1.909
130.10	-2694.892	-4550.179	 3646.091	  45.249	1057.190	5.597	     0.000	   105.835	  2356.058	     0.000	     0.000	     1.000	     1.936
131.10	-2695.463	-4550.964	 3646.537	  46.297	1076.248	5.798	     0.000	   103.720	  2384.560	     0.000	     0.000	     1.000	     1.964
132.10	-2696.046	-4551.763	 3646.991	  47.364	1095.580	6.004	     0.000	   101.605	  2413.332	     0.000	     0.000	     1.000	     1.992
133.10	-2696.640	-4552.576	 3647.451	  48.449	1115.194	6.216	     0.000	    99.490	  2442.377	     0.000	     0.000	     1.000	     2.021
134.10	-2697.246	-4553.405	 3647.917	  49.554	1135.094	6.433	     0.000	    97.375	  2471.703	     0.000	     0.000	     1.000	     2.051
135.10	-2697.863	-4554.247	 3648.390	  50.678	1155.286	6.656	     0.000	    95.260	  2501.313	     0.000	     0.000	     1.000	     2.081
136.10	-2698.493	-4555.105	 3648.870	  51.821	1175.775	6.885	     0.000	    93.146	  2531.214	     0.000	     0.000	     1.000	     2.112
137.10	-2699.136	-4555.978	 3649.357	  52.985	1196.568	7.119	     0.000	    91.031	  2561.411	     0.000	     0.000	     1.000	     2.143
138.10	-2699.791	-4556.867	 3649.851	  54.168	1217.669	7.360	     0.000	    88.916	  2591.910	     0.000	     0.000	     1.000	     2.175
139.10	-2700.458	-4557.771	 3650.352	  55.372	1239.086	7.607	     0.000	    86.801	  2622.718	     0.000	     0.000	     1.000	     2.207
140.10	-2701.139	-4558.691	 3650.860	  56.597	1260.824	7.860	     0.000	    84.686	  2653.840	     0.000	     0.000	     1.000	     2.240
141.10	-2701.833	-4559.627	 3651.375	  57.843	1282.891	8.119	     0.000	    82.571	  2685.284	     0.000	     0.000	     1.000	     2.274
142.10	-2702.540	-4560.580	 3651.898	  59.110	1305.293	8.385	     0.000	    80.456	  2717.055	     0.000	     0.000	     1.000	     2.309
143.10	-2703.260	-4561.549	 3652.428	  60.399	1328.037	8.658	     0.000	    78.341	  2749.162	     0.000	     0.000	     1.000	     2.344
144.10	-2703.995	-4562.535	 3652.966	  61.709	1351.130	8.937	     0.000	    76.226	  2781.610	     0.000	     0.000	     1.000	     2.380
145.10	-2704.743	-4563.538	 3653.511	  63.042	1374.580	9.223	     0.000	    74.112	  2814.407	     0.000	     0.000	     1.000	     2.416
146.10	-2705.506	-4564.558	 3654.064	  64.398	1398.393	9.516	     0.000	    71.997	  2847.562	     0.000	     0.000	     1.000	     2.454
147.10	-2706.283	-4565.597	 3654.624	  65.777	1422.579	9.815	     0.000	    69.882	  2881.081	     0.000	     0.000	     1.000	     2.492
148.10	-2707.075	-4566.653	 3655.193	  67.179	1447.146	10.122	     0.000	    67.767	  2914.973	     0.000	     0.000	     1.000	     2.531
149.10	-2707.882	-4567.727	 3655.770	  68.605	1472.101	10.437	     0.000	    65.652	  2949.246	     0.000	     0.000	     1.000	     2.571
150.10	-2708.704	-4568.820	 3656.355	  70.055	1497.454	10.758	     0.000	    63.537	  2983.909	     0.000	     0.000	     1.000	     2.612
151.10	-2709.542	-4569.931	 3656.948	  71.529	1523.213	11.087	     0.000	    61.422	  3018.971	     0.000	     0.000	     1.000	     2.654
152.10	-2710.395	-4571.062	 3657.549	  73.029	1549.388	11.424	     0.000	    59.307	  3054.441	     0.000	     0.000	     1.000	     2.697
153.10	-2711.264	-4572.212	 3658.159	  74.553	1575.989	11.769	     0.000	    57.192	  3090.329	     0.000	     0.000	     1.000	     2.741
154.10	-2712.150	-4573.381	 3658.778	  76.104	1603.025	12.121	     0.000	    55.078	  3126.644	     0.000	     0.000	     1.000	     2.786
155.10	-2713.052	-4574.571	 3659.406	  77.680	1630.507	12.482	     0.000	    52.963	  3163.398	     0.000	     0.000	     1.000	     2.832
156.10	-2713.971	-4575.781	 3660.042	  79.283	1658.447	12.850	     0.000	    50.848	  3200.600	     0.000	     0.000	     1.000	     2.879
157.10	-2714.907	-4577.011	 3660.688	  80.913	1686.854	13.228	     0.000	    48.733	  3238.263	     0.000	     0.000	     1.000	     2.927
158.10	-2715.860	-4578.263	 3661.342	  82.570	1715.740	13.613	     0.000	    46.618	  3276.396	     0.000	     0.000	     1.000	     2.977
159.10	-2716.831	-4579.536	 3662.006	  84.255	1741.232	14.007	     0.000	    44.715	  3311.129	     0.000	     0.000	     0.000	     0.974
160.10	-2717.805	-4580.810	 3662.669	  85.944	1731.976	14.404	     0.000	    44.715	  3311.129	     0.000	     0.000	     0.000	     0.974
161.10	-2718.775	-4582.078	 3663.327	  87.623	1722.729	14.801	     0.000	    44.715	  3311.129	     0.000	     0.000	     0.000	     0.973
162.10	-2719.741	-4583.339	 3663.979	  89.293	1713.488	15.198	     0.000	    44.715	  3311.129	     0.000	     0.000	     0.000	     0.973
163.10	-2720.703	-4584.593	 3664.626	  90.953	1702.959	15.595	     0.000	    44.715	  3311.129	     0.000	     0.000	     0.000	     2.335
164.10	-2721.661	-4585.839	 3665.266	  92.603	1693.734	15.992	     0.000	    44.715	  3311.129	     0.000	     0.000	     0.000	     0.972
165.10	-2722.615	-4587.078	 3665.902	  94.243	1684.518	16.389	     0.000	    44.715	  3311.129	     0.000	     0.000	     0.000	     0.971
166.10	-2723.566	-4588.311	 3666.532	  95.873	1675.309	16.785	     0.000	    44.715	  3311.129	     0.000	     0.000	     0.000	     0.971
167.10	-2724.512	-4589.536	 3667.156	  97.494	1666.108	17.182	     0.000	    44.715	  3311.129	     0.000	     0.000	     0.000	     0.970
168.10	-2725.455	-4590.755	 3667.775	  99.106	1656.915	17.578	     0.000	    44.715	  3311.129	     0.000	     0.000	     0.000	     0.970
169.10	-2726.394	-4591.967	 3668.389	 100.708	1647.729	17.974	     0.000	    44.715	  3311.129	     0.000	     0.000	     0.000	     0.969
170.10	-2727.329	-4593.172	 3668.997	 102.300	1638.551	18.370	     0.000	    44.715	  3311.129	     0.000	     0.000	     0.000	     0.969
171.10	-2728.260	-4594.370	 3669.600	 103.884	1629.381	18.766	     0.000	    44.715	  3311.129	     0.000	     0.000	     0.000	     0.968
172.10	-2729.188	-4595.562	 3670.198	 105.457	1620.220	19.162	     0.000	    44.715	  3311.129	     0.000	     0.000	     0.000	     0.968
173.10	-2730.112	-4596.746	 3670.790	 107.021	1611.065	19.558	     0.000	    44.715	  3311.129	     0.000	     0.000	     0.000	     0.967
174.10	-2731.032	-4597.924	 3671.377	 108.576	1601.919	19.954	     0.000	    44.715	  3311.129	     0.000	     0.000	     0.000	     0.967
175.10	-2731.948	-4599.095	 3671.959	 110.122	1592.781	20.350	     0.000	    44.715	  3311.129	     0.000	     0.000	     0.000	     0.966
176.10	-2732.860	-4600.259	 3672.535	 111.657	1583.651	20.746	     0.000	    44.715	  3311.129	     0.000	     0.000	     0.000	     0.966
177.10	-2733.769	-4601.416	 3673.106	 113.184	1574.528	21.141	     0.000	    44.715	  3311.129	     0.000	     0.000	     0.000	     0.965
178.10	-2734.673	-4602.567	 3673.671	 114.701	1565.414	21.537	     0.000	    44.715	  3311.129	     0.000	     0.000	     0.000	     0.965
179.10	-2735.574	-4603.710	 3674.232	 116.208	1556.308	21.932	     0.000	    44.715	  3311.129	     0.000	     0.000	     0.000	     0.965
180.10	-2736.472	-4604.848	 3674.787	 117.707	1550.321	22.327	     0.000	    44.644	  3314.239	     0.000	     0.000	     1.000	     2.258
181.10	-2737.352	-4605.969	 3675.342	 119.188	1516.640	22.710	     0.000	    43.939	  3345.509	     0.000	     0.000	     1.000	     3.865
182.10	-2738.204	-4607.066	 3675.899	 120.641	1482.905	23.068	     0.000	    43.234	  3377.104	     0.000	     0.000	     1.000	     3.898
183.10	-2739.028	-4608.137	 3676.459	 122.066	1449.132	23.400	     0.000	    42.529	  3409.029	     0.000	     0.000	     1.000	     3.931
184.10	-2739.823	-4609.183	 3677.021	 123.462	1415.339	23.708	     0.000	    41.824	  3441.293	     0.000	     0.000	     1.000	     3.965
185.10	-2740.588	-4610.204	 3677.585	 124.828	1381.547	23.990	     0.000	    41.119	  3473.901	     0.000	     0.000	     1.000	     4.000
186.10	-2741.324	-4611.199	 3678.152	 126.166	1347.779	24.246	     0.000	    40.414	  3506.863	     0.000	     0.000	     1.000	     4.035
187.10	-2742.030	-4612.168	 3678.722	 127.474	1314.062	24.477	     0.000	    39.709	  3540.185	     0.000	     0.000	     1.000	     4.071
188.10	-2742.707	-4613.111	 3679.294	 128.753	1280.426	24.681	     0.000	    39.004	  3573.876	     0.000	     0.000	     1.000	     4.108
189.10	-2743.352	-4614.027	 3679.870	 130.002	1246.908	24.859	     0.000	    38.299	  3607.943	     0.000	     0.000	     1.000	     4.146
190.10	-2743.968	-4614.917	 3680.448	 131.221	1213.547	25.009	     0.000	    37.595	  3642.395	     0.000	     0.000	     1.000	     4.185
191.10	-2744.552	-4615.780	 3681.029	 132.409	1180.390	25.133	     0.000	    36.890	  3677.242	     0.000	     0.000	     1.000	     4.225
192.10	-2745.105	-4616.617	 3681.614	 133.567	1147.489	25.229	     0.000	    36.185	  3712.491	     0.000	     0.000	     1.000	     4.266
193.10	-2745.627	-4617.426	 3682.202	 134.695	1114.905	25.298	     0.000	    35.480	  3748.154	     0.000	     0.000	     1.000	     4.307
194.10	-2746.117	-4618.207	 3682.793	 135.791	1082.708	25.338	     0.000	    34.775	  3784.238	     0.000	     0.000	     1.000	     4.350
195.10	-2746.574	-4618.961	 3683.387	 136.856	1050.976	25.350	     0.000	    34.070	  3820.755	     0.000	     0.000	     1.000	     4.394
196.10	-2746.999	-4619.687	 3683.985	 137.890	1019.800	25.334	     0.000	    33.365	  3857.715	     0.000	     0.000	     1.000	     4.439
197.10	-2747.391	-4620.385	 3684.587	 138.892	 989.284	25.288	     0.000	    32.660	  3895.129	     0.000	     0.000	     1.000	     4.484
198.10	-2747.750	-4621.055	 3685.192	 139.861	 959.545	25.213	     0.000	    31.955	  3933.008	     0.000	     0.000	     1.000	     4.532
199.10	-2748.093	-4621.709	 3685.796	 140.811	 950.229	25.125	     0.000	    31.955	  3933.008	     0.000	     0.000	     0.000	     0.957
200.10	-2748.433	-4622.356	 3686.395	 141.752	 940.916	25.037	     0.000	    31.955	  3933.008	     0.000	     0.000	     0.000	     0.957
201.10	-2748.768	-4622.997	 3686.988	 142.684	 931.607	24.949	     0.000	    31.955	  3933.008	     0.000	     0.000	     0.000	     0.957
202.10	-2749.100	-4623.631	 3687.576	 143.606	 922.301	24.861	     0.000	    31.955	  3933.008	     0.000	     0.000	     0.000	     0.956
203.10	-2749.427	-4624.258	 3688.159	 144.519	 912.998	24.773	     0.000	    31.955	  3933.008	     0.000	     0.000	     0.000	     0.956
204.10	-2749.751	-4624.879	 3688.736	 145.422	 903.699	24.686	     0.000	    31.955	  3933.008	     0.000	     0.000	     0.000	     0.956
205.10	-2750.071	-4625.493	 3689.308	 146.316	 894.404	24.598	     0.000	    31.955	  3933.008	     0.000	     0.000	     0.000	     0.956
206.10	-2750.387	-4626.100	 3689.875	 147.201	 885.112	24.510	     0.000	    31.955	  3933.008	     0.000	     0.000	     0.000	     0.955
207.10	-2750.700	-4626.700	 3690.436	 148.076	 875.823	24.423	     0.000	    31.955	  3933.008	     0.000	     0.000	     0.000	     0.955
208.10	-2751.008	-4627.294	 3690.992	 148.942	 866.538	24.335	     0.000	    31.955	  3933.008	     0.000	     0.000	     0.000	     0.955
209.10	-2751.313	-4627.882	 3691.543	 149.799	 857.256	24.248	     0.000	    31.955	  3933.008	     0.000	     0.000	     0.000	     0.955
210.10	-2751.614	-4628.463	 3692.089	 150.647	 847.977	24.161	     0.000	    31.955	  3933.008	     0.000	     0.000	     0.000	     0.954
211.10	-2751.911	-4629.037	 3692.629	 151.485	 838.702	24.074	     0.000	    31.955	  3933.008	     0.000	     0.000	     0.000	     0.954
212.10	-2752.204	-4629.604	 3693.164	 152.314	 829.431	23.987	     0.000	    31.955	  3933.008	     0.000	     0.000	     0.000	     0.954
213.10	-2752.493	-4630.165	 3693.694	 153.133	 820.163	23.900	     0.000	    31.955	  3933.008	     0.000	     0.000	     0.000	     0.954
214.10	-2752.778	-4630.719	 3694.218	 153.943	 810.898	23.813	     0.000	    31.955	  3933.008	     0.000	     0.000	     0.000	     0.953
215.10	-2753.060	-4631.266	 3694.738	 154.744	 801.637	23.726	     0.000	    31.955	  3933.008	     0.000	     0.000	     0.000	     0.953
216.10	-2753.338	-4631.807	 3695.252	 155.536	 792.380	23.639	     0.000	    31.955	  3933.008	     0.000	     0.000	     0.000	     0.953
217.10	-2753.612	-4632.341	 3695.760	 156.318	 783.125	23.552	     0.000	    31.955	  3933.008	     0.000	     0.000	     0.000	     0.953
218.10	-2753.882	-4632.869	 3696.264	 157.091	 773.875	23.466	     0.000	    31.955	  3933.008	     0.000	     0.000	     0.000	     0.953
219.10	-2754.148	-4633.390	 3696.762	 157.855	 764.628	23.379	     0.000	    31.955	  3933.008	     0.000	     0.000	     0.000	     0.952
220.10	-2754.410	-4633.904	 3697.254	 158.609	 755.384	23.293	     0.000	    31.955	  3933.008	     0.000	     0.000	     0.000	     0.952
221.10	-2754.669	-4634.412	 3697.742	 159.354	 746.145	23.206	     0.000	    31.955	  3933.008	     0.000	     0.000	     0.000	     0.952
222.10	-2754.923	-4634.913	 3698.224	 160.090	 736.908	23.120	     0.000	    31.955	  3933.008	     0.000	     0.000	     0.000	     0.952
223.10	-2755.174	-4635.407	 3698.701	 160.816	 727.676	23.034	     0.000	    31.955	  3933.008	     0.000	     0.000	     0.000	     0.951
224.10	-2755.421	-4635.895	 3699.173	 161.533	 718.447	22.948	     0.000	    31.955	  3933.008	     0.000	     0.000	     0.000	     0.951
225.10	-2755.665	-4636.377	 3699.639	 162.241	 709.222	22.862	     0.000	    31.955	  3933.008	     0.000	     0.000	     0.000	     0.951
226.10	-2755.904	-4636.851	 3700.100	 162.940	 700.000	22.775	     0.000	    31.955	  3933.008	     0.000	     0.000	     0.000	     0.951
227.10	-2756.139	-4637.319	 3700.556	 163.629	 690.783	22.690	     0.000	    31.955	  3933.008	     0.000	     0.000	     0.000	     0.951
228.10	-2756.371	-4637.780	 3701.007	 164.309	 681.569	22.604	     0.000	    31.955	  3933.008	     0.000	     0.000	     0.000	     0.950
229.10	-2756.599	-4638.235	 3701.452	 164.980	 672.359	22.518	     0.000	    31.955	  3933.008	     0.000	     0.000	     0.000	     0.950
230.10	-2756.823	-4638.683	 3701.892	 165.641	 663.153	22.432	     0.000	    31.955	  3933.008	     0.000	     0.000	     0.000	     0.950
231.10	-2757.043	-4639.125	 3702.327	 166.294	 653.952	22.346	     0.000	    31.955	  3933.008	     0.000	     0.000	     0.000	     0.950
232.10	-2757.259	-4639.560	 3702.757	 166.936	 644.754	22.261	     0.000	    31.955	  3933.008	     0.000	     0.000	     0.000	     0.950
233.10	-2757.472	-4639.988	 3703.181	 167.570	 635.560	22.175	     0.000	    31.955	  3933.008	     0.000	     0.000	     0.000	     0.949
234.10	-2757.680	-4640.410	 3703.600	 168.194	 626.371	22.090	     0.000	    31.955	  3933.008	     0.000	     0.000	     0.000	     0.949
235.10	-2757.885	-4640.825	 3704.014	 168.809	 617.186	22.004	     0.000	    31.955	  3933.008	     0.000	     0.000	     0.000	     0.949
236.10	-2758.086	-4641.234	 3704.422	 169.415	 608.005	21.919	     0.000	    31.955	  3933.008	     0.000	     0.000	     0.000	     0.949
237.10	-2758.283	-4641.636	 3704.825	 170.012	 598.829	21.834	     0.000	    31.955	  3933.008	     0.000	     0.000	     0.000	     0.949
238.10	-2758.476	-4642.031	 3705.223	 170.599	 589.657	21.748	     0.000	    31.955	  3933.008	     0.000	     0.000	     0.000	     0.949
239.10	-2758.666	-4642.420	 3705.616	 171.177	 580.490	21.663	     0.000	    31.955	  3933.008	     0.000	     0.000	     0.000	     0.948
240.10	-2758.851	-4642.802	 3706.003	 171.746	 571.328	21.578	     0.000	    31.955	  3933.008	     0.000	     0.000	     0.000	     0.948
241.10	-2759.033	-4643.178	 3706.386	 172.305	 562.171	21.493	     0.000	    31.955	  3933.008	     0.000	     0.000	     0.000	     0.948
242.10	-2759.211	-4643.547	 3706.763	 172.856	 553.019	21.408	     0.000	    31.955	  3933.008	     0.000	     0.000	     0.000	     0.948
243.10	-2759.385	-4643.909	 3707.134	 173.397	 543.872	21.323	     0.000	    31.955	  3933.008	     0.000	     0.000	     0.000	     0.948
244.10	-2759.555	-4644.265	 3707.501	 173.928	 534.731	21.238	     0.000	    31.955	  3933.008	     0.000	     0.000	     0.000	     0.948
245.10	-2759.721	-4644.614	 3707.862	 174.451	 525.595	21.154	     0.000	    31.955	  3933.008	     0.000	     0.000	     0.000	     0.947
246.10	-2759.884	-4644.957	 3708.218	 174.964	 516.465	21.069	     0.000	    31.955	  3933.008	     0.000	     0.000	     0.000	     0.947
247.10	-2760.042	-4645.293	 3708.569	 175.468	 507.341	20.984	     0.000	    31.955	  3933.008	     0.000	     0.000	     0.000	     0.947
248.10	-2760.197	-4645.622	 3708.914	 175.963	 498.223	20.899	     0.000	    31.955	  3933.008	     0.000	     0.000	     0.000	     0.947
249.10	-2760.348	-4645.945	 3709.254	 176.448	 489.112	20.815	     0.000	    31.955	  3933.008	     0.000	     0.000	     0.000	     0.947
250.10	-2760.495	-4646.262	 3709.589	 176.924	 480.007	20.730	     0.000	    31.955	  3933.008	     0.000	     0.000	     0.000	     0.947
251.10	-2760.638	-4646.572	 3709.919	 177.391	 470.909	20.646	     0.000	    31.955	  3933.008	     0.000	     0.000	     0.000	     0.947
252.10	-2760.778	-4646.875	 3710.243	 177.849	 461.819	20.561	     0.000	    31.955	  3933.008	     0.000	     0.000	     0.000	     0.946
253.10	-2760.913	-4647.172	 3710.562	 178.297	 452.736	20.477	     0.000	    31.955	  3933.008	     0.000	     0.000	     0.000	     0.946
254.10	-2761.045	-4647.462	 3710.876	 178.737	 443.661	20.393	     0.000	    31.955	  3933.008	     0.000	     0.000	     0.000	     0.946
255.10	-2761.173	-4647.745	 3711.185	 179.167	 434.595	20.308	     0.000	    31.955	  3933.008	     0.000	     0.000	     0.000	     0.946
256.10	-2761.297	-4648.022	 3711.488	 179.587	 425.537	20.224	     0.000	    31.955	  3933.008	     0.000	     0.000	     0.000	     0.946
257.10	-2761.417	-4648.293	 3711.787	 179.999	 416.489	20.140	     0.000	    31.955	  3933.008	     0.000	     0.000	     0.000	     0.946
258.10	-2761.533	-4648.556	 3712.080	 180.401	 407.450	20.056	     0.000	    31.955	  3933.008	     0.000	     0.000	     0.000	     0.946
259.10	-2761.646	-4648.814	 3712.367	 180.794	 398.422	19.972	     0.000	    31.955	  3933.008	     0.000	     0.000	     0.000	     0.946
260.10	-2761.754	-4649.065	 3712.650	 181.178	 389.405	19.888	     0.000	    31.955	  3933.008	     0.000	     0.000	     0.000	     0.946
261.10	-2761.859	-4649.309	 3712.927	 181.552	 380.399	19.804	     0.000	    31.955	  3933.008	     0.000	     0.000	     0.000	     0.945
262.10	-2761.960	-4649.546	 3713.199	 181.918	 371.406	19.720	     0.000	    31.955	  3933.008	     0.000	     0.000	     0.000	     0.945
263.10	-2762.057	-4649.777	 3713.466	 182.274	 362.426	19.636	     0.000	    31.955	  3933.008	     0.000	     0.000	     0.000	     0.945
264.10	-2762.150	-4650.002	 3713.727	 182.621	 353.460	19.552	     0.000	    31.955	  3933.008	     0.000	     0.000	     0.000	     0.945
265.10	-2762.240	-4650.220	 3713.983	 182.958	 344.509	19.468	     0.000	    31.955	  3933.008	     0.000	     0.000	     0.000	     0.945
266.10	-2762.325	-4650.431	 3714.234	 183.287	 335.574	19.385	     0.000	    31.955	  3933.008	     0.000	     0.000	     0.000	     0.945
267.10	-2762.407	-4650.636	 3714.480	 183.606	 326.657	19.301	     0.000	    31.955	  3933.008	     0.000	     0.000	     0.000	     0.945
268.10	-2762.485	-4650.835	 3714.721	 183.916	 317.758	19.217	     0.000	    31.955	  3933.008	     0.000	     0.000	     0.000	     0.945
269.10	-2762.559	-4651.026	 3714.956	 184.217	 308.880	19.133	     0.000	    31.955	  3933.008	     0.000	     0.000	     0.000	     0.945
270.10	-2762.629	-4651.212	 3715.186	 184.508	 300.024	19.050	     0.000	    31.955	  3933.008	     0.000	     0.000	     0.000	     0.945
271.10	-2762.695	-4651.390	 3715.411	 184.790	 291.191	18.966	     0.000	    31.955	  3933.008	     0.000	     0.000	     0.000	     0.944
272.10	-2762.758	-4651.562	 3715.631	 185.063	 282.385	18.883	     0.000	    31.955	  3933.008	     0.000	     0.000	     0.000	     0.944
273.10	-2762.816	-4651.728	 3715.845	 185.327	 273.607	18.799	     0.000	    31.955	  3933.008	     0.000	     0.000	     0.000	     0.944
274.10	-2762.871	-4651.887	 3716.054	 185.582	 264.861	18.716	     0.000	    31.955	  3933.008	     0.000	     0.000	     0.000	     0.944
275.10	-2762.922	-4652.040	 3716.258	 185.827	 256.148	18.632	     0.000	    31.955	  3933.008	     0.000	     0.000	     0.000	     0.944
276.10	-2762.969	-4652.186	 3716.456	 186.063	 247.473	18.549	     0.000	    31.955	  3933.008	     0.000	     0.000	     0.000	     0.944
277.10	-2763.012	-4652.325	 3716.650	 186.290	 238.840	18.466	     0.000	    31.955	  3933.008	     0.000	     0.000	     0.000	     0.944
278.10	-2763.051	-4652.458	 3716.838	 186.508	 230.254	18.382	     0.000	    31.955	  3933.008	     0.000	     0.000	     0.000	     0.944
279.10	-2763.086	-4652.584	 3717.021	 186.716	 221.719	18.299	     0.000	    31.955	  3933.008	     0.000	     0.000	     0.000	     0.944
280.10	-2763.118	-4652.704	 3717.199	 186.916	 213.242	18.216	     0.000	    31.955	  3933.008	     0.000	     0.000	     0.000	     0.944
281.10	-2763.146	-4652.817	 3717.371	 187.106	 204.830	18.133	     0.000	    31.955	  3933.008	     0.000	     0.000	     0.000	     0.944
282.10	-2763.169	-4652.924	 3717.538	 187.287	 196.490	18.049	     0.000	    31.955	  3933.008	     0.000	     0.000	     0.000	     0.944
283.10	-2763.189	-4653.024	 3717.700	 187.458	 188.234	17.966	     0.000	    31.955	  3933.008	     0.000	     0.000	     0.000	     0.944
284.10	-2763.205	-4653.118	 3717.857	 187.621	 180.071	17.883	     0.000	    31.955	  3933.008	     0.000	     0.000	     0.000	     0.944
285.10	-2763.218	-4653.205	 3718.008	 187.774	 172.016	17.800	     0.000	    31.955	  3933.008	     0.000	     0.000	     0.000	     0.944
286.10	-2763.226	-4653.286	 3718.155	 187.918	 164.083	17.717	     0.000	    31.955	  3933.008	     0.000	     0.000	     0.000	     0.944
287.10	-2763.230	-4653.360	 3718.296	 188.053	 156.292	17.634	     0.000	    31.955	  3933.008	     0.000	     0.000	     0.000	     0.944
288.10	-2763.231	-4653.428	 3718.432	 188.178	 148.665	17.551	     0.000	    31.955	  3933.008	     0.000	     0.000	     0.000	     0.944
289.10	-2763.228	-4653.489	 3718.562	 188.294	 141.227	17.468	     0.000	    31.955	  3933.008	     0.000	     0.000	     0.000	     0.943
290.10	-2763.221	-4653.543	 3718.687	 188.402	 134.012	17.385	     0.000	    31.955	  3933.008	     0.000	     0.000	     0.000	     0.943
291.10	-2763.210	-4653.591	 3718.808	 188.499	 127.056	17.302	     0.000	    31.955	  3933.008	     0.000	     0.000	     0.000	     0.943
292.10	-2763.195	-4653.633	 3718.922	 188.588	 120.404	17.219	     0.000	    31.955	  3933.008	     0.000	     0.000	     0.000	     0.943
293.10	-2763.176	-4653.668	 3719.032	 188.668	 114.109	17.136	     0.000	    31.955	  3933.008	     0.000	     0.000	     0.000	     0.943
294.10	-2763.154	-4653.696	 3719.136	 188.738	 108.234	17.053	     0.000	    31.955	  3933.008	     0.000	     0.000	     0.000	     0.943
295.10	-2763.127	-4653.718	 3719.236	 188.799	 102.851	16.971	     0.000	    31.955	  3933.008	     0.000	     0.000	     0.000	     0.943
296.10	-2763.097	-4653.734	 3719.329	 188.851	  98.040	16.888	     0.000	    31.955	  3933.008	     0.000	     0.000	     0.000	     0.943
297.10	-2763.063	-4653.743	 3719.418	 188.893	  93.890	16.805	     0.000	    31.955	  3933.008	     0.000	     0.000	     0.000	     0.943
298.10	-2763.025	-4653.745	 3719.502	 188.927	  90.491	16.722	     0.000	    31.955	  3933.008	     0.000	     0.000	     0.000	     0.943
299.00	-2762.987	-4653.742	 3719.572	 188.949	  88.146	16.648	     0.000	    31.955	  3933.008	     0.000	     0.000	     0.000	     0.943
300.00	-2762.942	-4653.731	 3719.646	 188.965	  86.404	16.565	     0.000	    31.955	  3933.008	     0.000	     0.000	     0.000	     0.943
301.00	-2762.892	-4653.715	 3719.714	 188.971	  85.625	16.482	     0.000	    31.955	  3933.008	     0.000	     0.000	     0.000	     0.943
302.00	-2762.839	-4653.692	 3719.777	 188.969	  85.833	16.400	     0.000	    31.955	  3933.008	     0.000	     0.000	     0.000	     0.943
303.00	-2762.782	-4653.662	 3719.835	 188.957	  87.022	16.317	     0.000	    31.955	  3933.008	     0.000	     0.000	     0.000	     0.943
304.00	-2762.721	-4653.626	 3719.887	 188.936	  89.153	16.234	     0.000	    31.955	  3933.008	     0.000	     0.000	     0.000	     0.943
305.00	-2762.656	-4653.584	 3719.935	 188.906	  92.160	16.152	     0.000	    31.955	  3933.008	     0.000	     0.000	     0.000	     0.943
306.00	-2762.588	-4653.535	 3719.977	 188.867	  95.962	16.069	     0.000	    31.955	  3933.008	     0.000	     0.000	     0.000	     0.943
307.00	-2762.515	-4653.479	 3720.014	 188.818	 100.467	15.986	     0.000	    31.955	  3933.008	     0.000	     0.000	     0.000	     0.943
308.00	-2762.439	-4653.417	 3720.045	 188.760	 105.586	15.904	     0.000	    31.955	  3933.008	     0.000	     0.000	     0.000	     0.943
309.00	-2762.358	-4653.348	 3720.072	 188.693	 111.235	15.821	     0.000	    31.955	  3933.008	     0.000	     0.000	     0.000	     0.943
310.00	-2762.274	-4653.273	 3720.093	 188.617	 117.337	15.738	     0.000	    31.955	  3933.008	     0.000	     0.000	     0.000	     0.943
311.00	-2762.186	-4653.191	 3720.109	 188.531	 123.824	15.656	     0.000	    31.955	  3933.008	     0.000	     0.000	     0.000	     0.943
312.00	-2762.094	-4653.103	 3720.120	 188.437	 130.641	15.573	     0.000	    31.955	  3933.008	     0.000	     0.000	     0.000	     0.943
313.00	-2761.998	-4653.008	 3720.125	 188.333	 137.737	15.491	     0.000	    31.955	  3933.008	     0.000	     0.000	     0.000	     0.943
314.00	-2761.898	-4652.907	 3720.125	 188.220	 145.072	15.408	     0.000	    31.955	  3933.008	     0.000	     0.000	     0.000	     0.943
315.00	-2761.795	-4652.800	 3720.120	 188.098	 152.612	15.326	     0.000	    31.955	  3933.008	     0.000	     0.000	     0.000	     0.944
316.00	-2761.687	-4652.685	 3720.110	 187.966	 160.328	15.243	     0.000	    31.955	  3933.008	     0.000	     0.000	     0.000	     0.944
317.00	-2761.576	-4652.565	 3720.094	 187.825	 168.195	15.161	     0.000	    31.955	  3933.008	     0.000	     0.000	     0.000	     0.944
318.00	-2761.460	-4652.437	 3720.074	 187.675	 176.194	15.078	     0.000	    31.955	  3933.008	     0.000	     0.000	     0.000	     0.944
319.00	-2761.341	-4652.304	 3720.048	 187.516	 184.307	14.996	     0.000	    31.955	  3933.008	     0.000	     0.000	     0.000	     0.944
320.00	-2761.218	-4652.163	 3720.016	 187.348	 192.520	14.913	     0.000	    31.955	  3933.008	     0.000	     0.000	     0.000	     0.944
321.00	-2761.091	-4652.017	 3719.980	 187.170	 200.821	14.831	     0.000	    31.955	  3933.008	     0.000	     0.000	     0.000	     0.944
322.00	-2760.960	-4651.863	 3719.938	 186.983	 209.199	14.748	     0.000	    31.955	  3933.008	     0.000	     0.000	     0.000	     0.944
323.00	-2760.825	-4651.703	 3719.891	 186.787	 217.646	14.666	     0.000	    31.955	  3933.008	     0.000	     0.000	     0.000	     0.944
324.00	-2760.687	-4651.537	 3719.839	 186.582	 226.154	14.583	     0.000	    31.955	  3933.008	     0.000	     0.000	     0.000	     0.944
325.00	-2760.544	-4651.364	 3719.782	 186.368	 234.717	14.501	     0.000	    31.955	  3933.008	     0.000	     0.000	     0.000	     0.944
326.00	-2760.398	-4651.185	 3719.719	 186.144	 243.328	14.418	     0.000	    31.955	  3933.008	     0.000	     0.000	     0.000	     0.944
327.00	-2760.247	-4650.999	 3719.651	 185.911	 251.983	14.336	     0.000	    31.955	  3933.008	     0.000	     0.000	     0.000	     0.944
328.00	-2760.093	-4650.807	 3719.578	 185.669	 260.678	14.253	     0.000	    31.955	  3933.008	     0.000	     0.000	     0.000	     0.944
329.00	-2759.935	-4650.608	 3719.500	 185.417	 269.409	14.171	     0.000	    31.955	  3933.008	     0.000	     0.000	     0.000	     0.944
330.00	-2759.773	-4650.403	 3719.416	 185.157	 278.172	14.088	     0.000	    31.955	  3933.008	     0.000	     0.000	     0.000	     0.944
331.00	-2759.607	-4650.191	 3719.327	 184.887	 286.965	14.005	     0.000	    31.955	  3933.008	     0.000	     0.000	     0.000	     0.944
332.00	-2759.437	-4649.972	 3719.233	 184.608	 295.785	13.923	     0.000	    31.955	  3933.008	     0.000	     0.000	     0.000	     0.945
333.00	-2759.263	-4649.748	 3719.134	 184.320	 304.630	13.840	     0.000	    31.955	  3933.008	     0.000	     0.000	     0.000	     0.945
334.00	-2759.085	-4649.516	 3719.029	 184.022	 313.498	13.758	     0.000	    31.955	  3933.008	     0.000	     0.000	     0.000	     0.945
335.00	-2758.903	-4649.278	 3718.919	 183.715	 322.387	13.675	     0.000	    31.955	  3933.008	     0.000	     0.000	     0.000	     0.945
336.00	-2758.718	-4649.034	 3718.804	 183.400	 331.296	13.593	     0.000	    31.955	  3933.008	     0.000	     0.000	     0.000	     0.945
337.00	-2758.528	-4648.783	 3718.684	 183.074	 340.223	13.510	     0.000	    31.955	  3933.008	     0.000	     0.000	     0.000	     0.945
338.00	-2758.335	-4648.526	 3718.558	 182.740	 349.166	13.428	     0.000	    31.955	  3933.008	     0.000	     0.000	     0.000	     0.945
339.00	-2758.138	-4648.262	 3718.427	 182.396	 358.125	13.345	     0.000	    31.955	  3933.008	     0.000	     0.000	     0.000	     0.945
340.00	-2757.936	-4647.991	 3718.291	 182.043	 367.098	13.263	     0.000	    31.955	  3933.008	     0.000	     0.000	     0.000	     0.945
341.00	-2757.731	-4647.714	 3718.150	 181.681	 376.085	13.180	     0.000	    31.955	  3933.008	     0.000	     0.000	     0.000	     0.945
342.00	-2757.522	-4647.431	 3718.004	 181.310	 385.085	13.097	     0.000	    31.955	  3933.008	     0.000	     0.000	     0.000	     0.945
343.00	-2757.309	-4647.141	 3717.852	 180.929	 394.097	13.015	     0.000	    31.955	  3933.008	     0.000	     0.000	     0.000	     0.946
344.00	-2757.092	-4646.845	 3717.695	 180.540	 403.120	12.932	     0.000	    31.955	  3933.008	     0.000	     0.000	     0.000	     0.946
345.00	-2756.872	-4646.542	 3717.532	 180.141	 412.154	12.850	     0.000	    31.955	  3933.008	     0.000	     0.000	     0.000	     0.946
346.00	-2756.647	-4646.232	 3717.365	 179.732	 421.198	12.767	     0.000	    31.955	  3933.008	     0.000	     0.000	     0.000	     0.946
347.00	-2756.418	-4645.916	 3717.192	 179.315	 430.251	12.684	     0.000	    31.955	  3933.008	     0.000	     0.000	     0.000	     0.946
348.00	-2756.185	-4645.594	 3717.014	 178.888	 439.314	12.601	     0.000	    31.955	  3933.008	     0.000	     0.000	     0.000	     0.946
349.00	-2755.949	-4645.265	 3716.830	 178.452	 448.385	12.519	     0.000	    31.955	  3933.008	     0.000	     0.000	     0.000	     0.946
350.00	-2755.708	-4644.929	 3716.642	 178.007	 457.464	12.436	     0.000	    31.955	  3933.008	     0.000	     0.000	     0.000	     0.946
351.00	-2755.464	-4644.587	 3716.448	 177.552	 466.551	12.353	     0.000	    31.955	  3933.008	     0.000	     0.000	     0.000	     0.947
352.00	-2755.216	-4644.239	 3716.249	 177.089	 475.645	12.271	     0.000	    31.955	  3933.008	     0.000	     0.000	     0.000	     0.947
353.00	-2754.963	-4643.884	 3716.044	 176.616	 484.746	12.188	     0.000	    31.955	  3933.008	     0.000	     0.000	     0.000	     0.947
354.00	-2754.707	-4643.522	 3715.835	 176.133	 493.855	12.105	     0.000	    31.955	  3933.008	     0.000	     0.000	     0.000	     0.947
355.00	-2754.447	-4643.154	 3715.620	 175.642	 502.970	12.022	     0.000	    31.955	  3933.008	     0.000	     0.000	     0.000	     0.947
356.00	-2754.183	-4642.779	 3715.400	 175.141	 512.091	11.939	     0.000	    31.955	  3933.008	     0.000	     0.000	     0.000	     0.947
357.00	-2753.915	-4642.398	 3715.174	 174.631	 521.218	11.856	     0.000	    31.955	  3933.008	     0.000	     0.000	     0.000	     0.947
358.00	-2753.643	-4642.011	 3714.944	 174.112	 530.351	11.774	     0.000	    31.955	  3933.008	     0.000	     0.000	     0.000	     0.948
359.00	-2753.367	-4641.617	 3714.708	 173.584	 539.490	11.691	     0.000	    31.955	  3933.008	     0.000	     0.000	     0.000	     0.948
360.00	-2753.087	-4641.216	 3714.466	 173.046	 548.634	11.608	     0.000	    31.955	  3933.008	     0.000	     0.000	     0.000	     0.948
361.00	-2752.803	-4640.809	 3714.220	 172.499	 557.784	11.525	     0.000	    31.955	  3933.008	     0.000	     0.000	     0.000	     0.948
362.00	-2752.516	-4640.395	 3713.968	 171.943	 566.939	11.442	     0.000	    31.955	  3933.008	     0.000	     0.000	     0.000	     0.948
363.00	-2752.224	-4639.975	 3713.711	 171.377	 576.098	11.359	     0.000	    31.955	  3933.008	     0.000	     0.000	     0.000	     0.948
364.00	-2751.928	-4639.548	 3713.449	 170.802	 585.263	11.276	     0.000	    31.955	  3933.008	     0.000	     0.000	     0.000	     0.949
365.00	-2751.629	-4639.115	 3713.181	 170.218	 594.433	11.192	     0.000	    31.955	  3933.008	     0.000	     0.000	     0.000	     0.949
366.00	-2751.325	-4638.675	 3712.909	 169.625	 603.607	11.109	     0.000	    31.955	  3933.008	     0.000	     0.000	     0.000	     0.949
367.00	-2751.018	-4638.229	 3712.631	 169.022	 612.785	11.026	     0.000	    31.955	  3933.008	     0.000	     0.000	     0.000	     0.949
368.00	-2750.706	-4637.776	 3712.347	 168.411	 621.969	10.943	     0.000	    31.955	  3933.008	     0.000	     0.000	     0.000	     0.949
369.00	-2750.391	-4637.317	 3712.059	 167.790	 631.156	10.860	     0.000	    31.955	  3933.008	     0.000	     0.000	     0.000	     0.949
370.00	-2750.071	-4636.851	 3711.765	 167.159	 640.348	10.777	     0.000	    31.955	  3933.008	     0.000	     0.000	     0.000	     0.950
371.00	-2749.748	-4636.379	 3711.465	 166.519	 649.544	10.693	     0.000	    31.955	  3933.008	     0.000	     0.000	     0.000	     0.950
372.00	-2749.421	-4635.900	 3711.161	 165.871	 658.744	10.610	     0.000	    31.955	  3933.008	     0.000	     0.000	     0.000	     0.950
373.00	-2749.089	-4635.415	 3710.851	 165.212	 667.948	10.527	     0.000	    31.955	  3933.008	     0.000	     0.000	     0.000	     0.950
374.00	-2748.754	-4634.923	 3710.536	 164.545	 677.156	10.443	     0.000	    31.955	  3933.008	     0.000	     0.000	     0.000	     0.950
375.00	-2748.415	-4634.425	 3710.216	 163.868	 686.368	10.360	     0.000	    31.955	  3933.008	     0.000	     0.000	     0.000	     0.951
376.00	-2748.072	-4633.920	 3709.890	 163.182	 695.584	10.276	     0.000	    31.955	  3933.008	     0.000	     0.000	     0.000	     0.951
377.00	-2747.724	-4633.408	 3709.559	 162.487	 704.803	10.193	     0.000	    31.955	  3933.008	     0.000	     0.000	     0.000	     0.951
378.00	-2747.373	-4632.890	 3709.223	 161.782	 714.027	10.109	     0.000	    31.955	  3933.008	     0.000	     0.000	     0.000	     0.951
379.00	-2747.018	-4632.366	 3708.882	 161.068	 723.254	10.026	     0.000	    31.955	  3933.008	     0.000	     0.000	     0.000	     0.951
380.00	-2746.659	-4631.835	 3708.535	 160.345	 732.485	9.942	     0.000	    31.955	  3933.008	     0.000	     0.000	     0.000	     0.952
381.00	-2746.296	-4631.297	 3708.183	 159.612	 741.719	9.858	     0.000	    31.955	  3933.008	     0.000	     0.000	     0.000	     0.952
382.00	-2745.929	-4630.753	 3707.826	 158.871	 750.958	9.774	     0.000	    31.955	  3933.008	     0.000	     0.000	     0.000	     0.952
383.00	-2745.558	-4630.203	 3707.463	 158.120	 760.199	9.691	     0.000	    31.955	  3933.008	     0.000	     0.000	     0.000	     0.952
384.00	-2745.183	-4629.646	 3707.095	 157.359	 769.445	9.607	     0.000	    31.955	  3933.008	     0.000	     0.000	     0.000	     0.952
385.00	-2744.804	-4629.082	 3706.722	 156.589	 778.694	9.523	     0.000	    31.955	  3933.008	     0.000	     0.000	     0.000	     0.953
386.00	-2744.421	-4628.512	 3706.344	 155.810	 787.946	9.439	     0.000	    31.955	  3933.008	     0.000	     0.000	     0.000	     0.953
387.00	-2744.034	-4627.935	 3705.960	 155.022	 797.202	9.355	     0.000	    31.955	  3933.008	     0.000	     0.000	     0.000	     0.953
388.00	-2743.643	-4627.352	 3705.571	 154.225	 806.462	9.271	     0.000	    31.955	  3933.008	     0.000	     0.000	     0.000	     0.953
389.00	-2743.248	-4626.762	 3705.177	 153.418	 815.725	9.187	     0.000	    31.955	  3933.008	     0.000	     0.000	     0.000	     0.954
390.00	-2742.849	-4626.166	 3704.777	 152.601	 824.992	9.103	     0.000	    31.955	  3933.008	     0.000	     0.000	     0.000	     0.954
391.00	-2742.446	-4625.563	 3704.372	 151.776	 834.262	9.019	     0.000	    31.955	  3933.008	     0.000	     0.000	     0.000	     0.954
392.00	-2742.039	-4624.953	 3703.962	 150.941	 843.535	8.934	     0.000	    31.955	  3933.008	     0.000	     0.000	     0.000	     0.954
393.00	-2741.628	-4624.338	 3703.546	 150.097	 852.812	8.850	     0.000	    31.955	  3933.008	     0.000	     0.000	     0.000	     0.955
394.00	-2741.213	-4623.715	 3703.125	 149.243	 862.092	8.766	     0.000	    31.955	  3933.008	     0.000	     0.000	     0.000	     0.955
395.00	-2740.794	-4623.086	 3702.699	 148.380	 871.376	8.681	     0.000	    31.955	  3933.008	     0.000	     0.000	     0.000	     0.955
396.00	-2740.371	-4622.450	 3702.268	 147.508	 880.663	8.597	     0.000	    31.955	  3933.008	     0.000	     0.000	     0.000	     0.955
397.00	-2739.944	-4621.808	 3701.831	 146.627	 889.954	8.513	     0.000	    31.955	  3933.008	     0.000	     0.000	     0.000	     0.956
398.00	-2739.513	-4621.160	 3701.389	 145.736	 899.248	8.428	     0.000	    31.955	  3933.008	     0.000	     0.000	     0.000	     0.956
399.00	-2739.078	-4620.504	 3700.941	 144.836	 908.546	8.343	     0.000	    31.955	  3933.008	     0.000	     0.000	     0.000	     0.956
400.00	-2738.639	-4619.843	 3700.488	 143.926	 917.847	8.259	     0.000	    31.955	  3933.008	     0.000	     0.000	     0.000	     0.956
401.00	-2738.196	-4619.174	 3700.030	 143.007	 927.151	8.174	     0.000	    31.955	  3933.008	     0.000	     0.000	     0.000	     0.957
402.00	-2737.749	-4618.500	 3699.567	 142.079	 936.459	8.089	     0.000	    31.955	  3933.008	     0.000	     0.000	     0.000	     0.957
403.00	-2737.298	-4617.818	 3699.098	 141.142	 945.770	8.004	     0.000	    31.955	  3933.008	     0.000	     0.000	     0.000	     0.957
404.00	-2736.843	-4617.130	 3698.624	 140.195	 955.085	7.919	     0.000	    31.955	  3933.008	     0.000	     0.000	     0.000	     0.957
405.00	-2736.384	-4616.436	 3698.145	 139.239	 964.403	7.834	     0.000	    31.955	  3933.008	     0.000	     0.000	     0.000	     0.958
406.00	-2735.920	-4615.735	 3697.660	 138.273	 973.725	7.749	     0.000	    31.955	  3933.008	     0.000	     0.000	     0.000	     0.958
407.00	-2735.453	-4615.027	 3697.170	 137.298	 983.050	7.664	     0.000	    31.955	  3933.008	     0.000	     0.000	     0.000	     0.958
408.00	-2734.982	-4614.313	 3696.675	 136.314	 992.379	7.579	     0.000	    31.955	  3933.008	     0.000	     0.000	     0.000	     0.959
409.00	-2734.507	-4613.592	 3696.174	 135.320	1001.711	7.494	     0.000	    31.955	  3933.008	     0.000	     0.000	     0.000	     0.959
410.00	-2734.027	-4612.865	 3695.668	 134.317	1011.046	7.408	     0.000	    31.955	  3933.008	     0.000	     0.000	     0.000	     0.959
411.00	-2733.544	-4612.131	 3695.157	 133.305	1020.386	7.323	     0.000	    31.955	  3933.008	     0.000	     0.000	     0.000	     0.959
412.00	-2733.057	-4611.391	 3694.640	 132.283	1029.728	7.237	     0.000	    31.955	  3933.008	     0.000	     0.000	     0.000	     0.960
413.00	-2732.565	-4610.644	 3694.119	 131.252	1039.074	7.152	     0.000	    31.955	  3933.008	     0.000	     0.000	     0.000	     0.960
414.00	-2732.070	-4609.890	 3693.591	 130.211	1048.424	7.066	     0.000	    31.955	  3933.008	     0.000	     0.000	     0.000	     0.960
415.00	-2731.570	-4609.130	 3693.059	 129.161	1057.778	6.981	     0.000	    31.955	  3933.008	     0.000	     0.000	     0.000	     0.961
416.00	-2731.071	-4608.369	 3692.524	 128.109	1054.390	6.895	     0.000	    31.720	  3945.750	     0.000	     0.000	     1.000	     0.355
417.00	-2730.573	-4607.610	 3691.991	 127.060	1050.952	6.811	     0.000	    31.485	  3958.546	     0.000	     0.000	     1.000	     0.359
418.00	-2730.077	-4606.854	 3691.460	 126.014	1047.463	6.728	     0.000	    31.250	  3971.396	     0.000	     0.000	     1.000	     0.364
419.00	-2729.583	-4606.101	 3690.929	 124.972	1043.924	6.645	     0.000	    31.015	  3984.300	     0.000	     0.000	     1.000	     0.369
420.00	-2729.091	-4605.351	 3690.399	 123.934	1040.333	6.564	     0.000	    30.780	  3997.259	     0.000	     0.000	     1.000	     0.374
421.00	-2728.601	-4604.603	 3689.871	 122.899	1036.691	6.483	     0.000	    30.545	  4010.273	     0.000	     0.000	     1.000	     0.379
422.00	-2728.114	-4603.858	 3689.344	 121.867	1032.996	6.404	     0.000	    30.310	  4023.344	     0.000	     0.000	     1.000	     0.385
423.00	-2727.628	-4603.116	 3688.819	 120.839	1029.248	6.325	     0.000	    30.075	  4036.470	     0.000	     0.000	     1.000	     0.390
424.00	-2727.145	-4602.377	 3688.295	 119.815	1025.447	6.248	     0.000	    29.840	  4049.654	     0.000	     0.000	     1.000	     0.395
425.00	-2726.664	-4601.641	 3687.772	 118.795	1021.592	6.171	     0.000	    29.605	  4062.894	     0.000	     0.000	     1.000	     0.400
426.00	-2726.185	-4600.908	 3687.250	 117.779	1017.682	6.095	     0.000	    29.370	  4076.193	     0.000	     0.000	     1.000	     0.406
427.00	-2725.708	-4600.178	 3686.730	 116.766	1013.718	6.020	     0.000	    29.135	  4089.549	     0.000	     0.000	     1.000	     0.411
428.00	-2725.233	-4599.451	 3686.212	 115.757	1009.698	5.946	     0.000	    28.900	  4102.965	     0.000	     0.000	     1.000	     0.417
429.00	-2724.761	-4598.727	 3685.695	 114.753	1005.623	5.873	     0.000	    28.665	  4116.440	     0.000	     0.000	     1.000	     0.422
430.00	-2724.291	-4598.006	 3685.180	 113.752	1001.490	5.801	     0.000	    28.430	  4129.975	     0.000	     0.000	     1.000	     0.428
431.00	-2723.823	-4597.288	 3684.666	 112.755	 997.301	5.729	     0.000	    28.195	  4143.570	     0.000	     0.000	     1.000	     0.433
432.00	-2723.358	-4596.573	 3684.154	 111.763	 993.054	5.659	     0.000	    27.960	  4157.226	     0.000	     0.000	     1.000	     0.439
433.00	-2722.895	-4595.862	 3683.644	 110.775	 988.749	5.590	     0.000	    27.725	  4170.943	     0.000	     0.000	     1.000	     0.445
434.00	-2722.434	-4595.153	 3683.135	 109.791	 984.385	5.521	     0.000	    27.490	  4184.723	     0.000	     0.000	     1.000	     0.451
435.00	-2721.976	-4594.449	 3682.628	 108.812	 979.962	5.453	     0.000	    27.255	  4198.565	     0.000	     0.000	     1.000	     0.457
436.00	-2721.520	-4593.747	 3682.123	 107.836	 975.479	5.386	     0.000	    27.020	  4212.471	     0.000	     0.000	     1.000	     0.463
437.00	-2721.066	-4593.049	 3681.620	 106.866	 970.935	5.320	     0.000	    26.785	  4226.440	     0.000	     0.000	     1.000	     0.469
438.00	-2720.615	-4592.354	 3681.118	 105.900	 966.330	5.255	     0.000	    26.550	  4240.473	     0.000	     0.000	     1.000	     0.475
439.00	-2720.167	-4591.663	 3680.619	 104.938	 961.664	5.191	     0.000	    26.315	  4254.571	     0.000	     0.000	     1.000	     0.481
440.00	-2719.721	-4590.975	 3680.121	 103.981	 956.935	5.128	     0.000	    26.080	  4268.735	     0.000	     0.000	     1.000	     0.487
441.00	-2719.278	-4590.291	 3679.626	 103.029	 952.143	5.065	     0.000	    25.845	  4282.965	     0.000	     0.000	     1.000	     0.494
442.00	-2718.837	-4589.611	 3679.132	 102.082	 947.288	5.004	     0.000	    25.610	  4297.262	     0.000	     0.000	     1.000	     0.500
443.00	-2718.398	-4588.934	 3678.641	 101.139	 942.368	4.943	     0.000	    25.375	  4311.626	     0.000	     0.000	     1.000	     0.507
444.00	-2717.963	-4588.261	 3678.151	 100.201	 937.383	4.883	     0.000	    25.140	  4326.059	     0.000	     0.000	     1.000	     0.513
445.00	-2717.530	-4587.591	 3677.664	  99.269	 932.333	4.824	     0.000	    24.905	  4340.560	     0.000	     0.000	     1.000	     0.520
446.00	-2717.099	-4586.926	 3677.179	  98.341	 927.216	4.766	     0.000	    24.670	  4355.130	     0.000	     0.000	     1.000	     0.526
447.00	-2716.672	-4586.264	 3676.696	  97.419	 922.033	4.709	     0.000	    24.435	  4369.770	     0.000	     0.000	     1.000	     0.533
448.00	-2716.247	-4585.606	 3676.216	  96.501	 916.782	4.652	     0.000	    24.200	  4384.481	     0.000	     0.000	     1.000	     0.540
449.00	-2715.825	-4584.952	 3675.738	  95.589	 911.462	4.596	     0.000	    23.965	  4399.264	     0.000	     0.000	     1.000	     0.547
450.00	-2715.405	-4584.302	 3675.262	  94.682	 906.073	4.542	     0.000	    23.730	  4414.118	     0.000	     0.000	     1.000	     0.554
451.00	-2714.989	-4583.656	 3674.789	  93.781	 900.615	4.488	     0.000	    23.495	  4429.045	     0.000	     0.000	     1.000	     0.561
452.00	-2714.575	-4583.014	 3674.318	  92.885	 895.086	4.435	     0.000	    23.260	  4444.046	     0.000	     0.000	     1.000	     0.568
453.00	-2714.164	-4582.376	 3673.849	  91.995	 889.486	4.382	     0.000	    23.025	  4459.121	     0.000	     0.000	     1.000	     0.575
454.00	-2713.756	-4581.742	 3673.383	  91.110	 883.813	4.331	     0.000	    22.790	  4474.271	     0.000	     0.000	     1.000	     0.583
455.00	-2713.351	-4581.112	 3672.920	  90.231	 878.068	4.280	     0.000	    22.555	  4489.496	     0.000	     0.000	     1.000	     0.590
456.00	-2712.949	-4580.487	 3672.459	  89.357	 872.249	4.230	     0.000	    22.320	  4504.798	     0.000	     0.000	     1.000	     0.598
457.00	-2712.550	-4579.866	 3672.001	  88.490	 866.356	4.181	     0.000	    22.085	  4520.177	     0.000	     0.000	     1.000	     0.605
458.00	-2712.154	-4579.249	 3671.546	  87.628	 860.388	4.133	     0.000	    21.850	  4535.635	     0.000	     0.000	     1.000	     0.613
459.00	-2711.761	-4578.637	 3671.094	  86.772	 854.344	4.085	     0.000	    21.615	  4551.171	     0.000	     0.000	     1.000	     0.620
460.00	-2711.371	-4578.030	 3670.644	  85.923	 848.222	4.039	     0.000	    21.380	  4566.787	     0.000	     0.000	     1.000	     0.628
461.00	-2710.984	-4577.426	 3670.197	  85.079	 842.024	3.993	     0.000	    21.145	  4582.483	     0.000	     0.000	     1.000	     0.636
462.00	-2710.600	-4576.828	 3669.753	  84.242	 835.746	3.948	     0.000	    20.910	  4598.260	     0.000	     0.000	     1.000	     0.644
463.00	-2710.220	-4576.234	 3669.312	  83.411	 829.389	3.904	     0.000	    20.675	  4614.120	     0.000	     0.000	     1.000	     0.652
464.00	-2709.842	-4575.644	 3668.874	  82.586	 822.952	3.860	     0.000	    20.440	  4630.062	     0.000	     0.000	     1.000	     0.660
465.00	-2709.468	-4575.060	 3668.440	  81.768	 816.434	3.817	     0.000	    20.205	  4646.089	     0.000	     0.000	     1.000	     0.669
466.00	-2709.093	-4574.473	 3668.003	  80.947	 825.949	3.775	     0.000	    20.205	  4646.089	     0.000	     0.000	     0.000	     0.975
467.00	-2708.713	-4573.880	 3667.560	  80.117	 835.467	3.733	     0.000	    20.205	  4646.089	     0.000	     0.000	     0.000	     0.975
468.00	-2708.330	-4573.279	 3667.113	  79.278	 844.987	3.690	     0.000	    20.205	  4646.089	     0.000	     0.000	     0.000	     0.976
469.00	-2707.942	-4572.673	 3666.659	  78.428	 854.511	3.648	     0.000	    20.205	  4646.089	     0.000	     0.000	     0.000	     0.976
470.00	-2707.551	-4572.059	 3666.201	  77.570	 864.037	3.605	     0.000	    20.205	  4646.089	     0.000	     0.000	     0.000	     0.976
471.00	-2707.155	-4571.439	 3665.737	  76.702	 873.566	3.562	     0.000	    20.205	  4646.089	     0.000	     0.000	     0.000	     0.976
472.00	-2706.755	-4570.812	 3665.267	  75.824	 883.097	3.520	     0.000	    20.205	  4646.089	     0.000	     0.000	     0.000	     0.977
473.00	-2706.351	-4570.179	 3664.793	  74.937	 892.632	3.477	     0.000	    20.205	  4646.089	     0.000	     0.000	     0.000	     0.977
474.00	-2705.943	-4569.538	 3664.312	  74.040	 902.169	3.434	     0.000	    20.205	  4646.089	     0.000	     0.000	     0.000	     0.977
475.00	-2705.531	-4568.891	 3663.827	  73.133	 911.710	3.391	     0.000	    20.205	  4646.089	     0.000	     0.000	     0.000	     0.977
476.00	-2705.115	-4568.238	 3663.335	  72.217	 921.253	3.348	     0.000	    20.205	  4646.089	     0.000	     0.000	     0.000	     0.978
477.00	-2704.695	-4567.577	 3662.839	  71.292	 930.799	3.305	     0.000	    20.205	  4646.089	     0.000	     0.000	     0.000	     0.978
478.00	-2704.271	-4566.910	 3662.337	  70.357	 940.348	3.262	     0.000	    20.205	  4646.089	     0.000	     0.000	     0.000	     0.978
479.00	-2703.842	-4566.237	 3661.829	  69.412	 949.900	3.219	     0.000	    20.205	  4646.089	     0.000	     0.000	     0.000	     0.979
480.00	-2703.410	-4565.556	 3661.316	  68.458	 959.455	3.176	     0.000	    20.205	  4646.089	     0.000	     0.000	     0.000	     0.979
481.00	-2702.973	-4564.869	 3660.798	  67.494	 969.013	3.132	     0.000	    20.205	  4646.089	     0.000	     0.000	     0.000	     0.979
482.00	-2702.532	-4564.175	 3660.274	  66.521	 978.574	3.089	     0.000	    20.205	  4646.089	     0.000	     0.000	     0.000	     0.979
483.00	-2702.087	-4563.475	 3659.745	  65.538	 988.138	3.045	     0.000	    20.205	  4646.089	     0.000	     0.000	     0.000	     0.980
484.00	-2701.638	-4562.767	 3659.210	  64.546	 997.706	3.002	     0.000	    20.205	  4646.089	     0.000	     0.000	     0.000	     0.980
485.00	-2701.185	-4562.053	 3658.670	  63.544	1007.276	2.958	     0.000	    20.205	  4646.089	     0.000	     0.000	     0.000	     0.980
486.00	-2700.728	-4561.333	 3658.124	  62.532	1016.850	2.915	     0.000	    20.205	  4646.089	     0.000	     0.000	     0.000	     0.981
487.00	-2700.266	-4560.605	 3657.573	  61.511	1026.427	2.871	     0.000	    20.205	  4646.089	     0.000	     0.000	     0.000	     0.981
488.00	-2699.801	-4559.871	 3657.016	  60.480	1036.007	2.827	     0.000	    20.205	  4646.089	     0.000	     0.000	     0.000	     0.981
489.00	-2699.331	-4559.130	 3656.454	  59.440	1045.590	2.783	     0.000	    20.205	  4646.089	     0.000	     0.000	     0.000	     0.982
490.00	-2698.858	-4558.383	 3655.887	  58.390	1055.176	2.739	     0.000	    20.205	  4646.089	     0.000	     0.000	     0.000	     0.982
491.00	-2698.384	-4557.635	 3655.319	  57.338	1050.628	2.696	     0.000	    19.999	  4660.223	     0.000	     0.000	     0.878	     0.466
492.00	-2697.912	-4556.890	 3654.752	  56.291	1046.018	2.652	     0.000	    19.793	  4674.423	     0.000	     0.000	     0.878	     0.473
493.00	-2697.442	-4556.148	 3654.188	  55.249	1041.344	2.610	     0.000	    19.587	  4688.690	     0.000	     0.000	     0.878	     0.479
494.00	-2696.975	-4555.410	 3653.627	  54.211	1036.606	2.567	     0.000	    19.381	  4703.024	     0.000	     0.000	     0.878	     0.486
495.00	-2696.510	-4554.676	 3653.067	  53.178	1031.804	2.526	     0.000	    19.174	  4717.426	     0.000	     0.000	     0.878	     0.492
496.00	-2696.048	-4553.945	 3652.510	  52.149	1026.936	2.485	     0.000	    18.968	  4731.896	     0.000	     0.000	     0.878	     0.499
497.00	-2695.588	-4553.217	 3651.956	  51.126	1022.003	2.444	     0.000	    18.762	  4746.435	     0.000	     0.000	     0.878	     0.506
498.00	-2695.130	-4552.493	 3651.403	  50.108	1017.003	2.404	     0.000	    18.556	  4761.044	     0.000	     0.000	     0.878	     0.513
499.00	-2694.675	-4551.773	 3650.854	  49.094	1011.936	2.364	     0.000	    18.350	  4775.723	     0.000	     0.000	     0.878	     0.519
500.00	-2694.222	-4551.057	 3650.306	  48.086	1006.800	2.325	     0.000	    18.143	  4790.474	     0.000	     0.000	     0.878	     0.526
501.00	-2693.772	-4550.344	 3649.762	  47.083	1001.597	2.286	     0.000	    17.937	  4805.296	     0.000	     0.000	     0.878	     0.533
502.00	-2693.324	-4549.635	 3649.220	  46.085	 996.323	2.248	     0.000	    17.731	  4820.190	     0.000	     0.000	     0.878	     0.540
503.00	-2692.879	-4548.930	 3648.680	  45.092	 990.980	2.210	     0.000	    17.525	  4835.158	     0.000	     0.000	     0.878	     0.548
504.00	-2692.436	-4548.229	 3648.143	  44.105	 985.566	2.173	     0.000	    17.318	  4850.199	     0.000	     0.000	     0.878	     0.555
505.00	-2691.996	-4547.532	 3647.609	  43.123	 980.080	2.136	     0.000	    17.112	  4865.316	     0.000	     0.000	     0.878	     0.562
506.00	-2691.559	-4546.839	 3647.078	  42.146	 974.522	2.100	     0.000	    16.906	  4880.507	     0.000	     0.000	     0.878	     0.569
507.00	-2691.124	-4546.150	 3646.549	  41.176	 968.891	2.064	     0.000	    16.700	  4895.775	     0.000	     0.000	     0.878	     0.577
508.00	-2690.692	-4545.465	 3646.023	  40.211	 963.186	2.029	     0.000	    16.494	  4911.119	     0.000	     0.000	     0.878	     0.584
509.00	-2690.263	-4544.784	 3645.501	  39.251	 957.407	1.995	     0.000	    16.287	  4926.542	     0.000	     0.000	     0.878	     0.592
510.00	-2689.837	-4544.107	 3644.981	  38.298	 951.551	1.960	     0.000	    16.081	  4942.042	     0.000	     0.000	     0.878	     0.600
511.00	-2689.413	-4543.435	 3644.464	  37.350	 945.620	1.927	     0.000	    15.875	  4957.622	     0.000	     0.000	     0.878	     0.608
512.00	-2688.992	-4542.767	 3643.950	  36.408	 939.611	1.893	     0.000	    15.669	  4973.282	     0.000	     0.000	     0.878	     0.615
513.00	-2688.575	-4542.103	 3643.439	  35.473	 933.524	1.861	     0.000	    15.463	  4989.023	     0.000	     0.000	     0.878	     0.623
514.00	-2688.160	-4541.444	 3642.931	  34.543	 927.359	1.828	     0.000	    15.256	  5004.846	     0.000	     0.000	     0.878	     0.632
515.00	-2687.748	-4540.789	 3642.427	  33.620	 921.114	1.797	     0.000	    15.050	  5020.751	     0.000	     0.000	     0.878	     0.640
516.00	-2687.339	-4540.139	 3641.926	  32.703	 914.788	1.765	     0.000	    14.844	  5036.740	     0.000	     0.000	     0.878	     0.648
517.00	-2686.932	-4539.493	 3641.427	  31.792	 908.380	1.734	     0.000	    14.638	  5052.813	     0.000	     0.000	     0.878	     0.656
518.00	-2686.529	-4538.852	 3640.933	  30.887	 901.890	1.704	     0.000	    14.432	  5068.971	     0.000	     0.000	     0.878	     0.665
519.00	-2686.130	-4538.216	 3640.441	  29.990	 895.317	1.674	     0.000	    14.225	  5085.216	     0.000	     0.000	     0.878	     0.673
520.00	-2685.733	-4537.584	 3639.953	  29.099	 888.660	1.645	     0.000	    14.019	  5101.547	     0.000	     0.000	     0.878	     0.682
521.00	-2685.339	-4536.957	 3639.469	  28.214	 881.917	1.616	     0.000	    13.813	  5117.967	     0.000	     0.000	     0.878	     0.691
522.00	-2684.949	-4536.335	 3638.988	  27.336	 875.088	1.588	     0.000	    13.607	  5134.475	     0.000	     0.000	     0.878	     0.699
523.00	-2684.561	-4535.718	 3638.510	  26.466	 868.172	1.560	     0.000	    13.400	  5151.073	     0.000	     0.000	     0.878	     0.708
524.00	-2684.177	-4535.107	 3638.036	  25.602	 861.167	1.532	     0.000	    13.194	  5167.763	     0.000	     0.000	     0.878	     0.717
525.00	-2683.797	-4534.500	 3637.566	  24.745	 853.792	1.505	    14.627	    12.988	  5184.532	     0.000	     0.000	     0.878	     0.871
526.00	-2683.420	-4533.899	 3637.101	  23.896	 845.085	1.479	    16.483	    12.782	  5201.362	     0.000	     0.000	     0.878	     0.901
527.00	-2683.047	-4533.304	 3636.639	  23.056	 836.071	1.453	    18.532	    12.576	  5218.280	     0.000	     0.000	     0.878	     0.933
528.00	-2682.679	-4532.716	 3636.183	  22.226	 826.724	1.428	    20.783	    12.369	  5235.286	     0.000	     0.000	     0.878	     0.968
529.00	-2682.314	-4532.135	 3635.732	  21.405	 817.013	1.403	    23.245	    12.163	  5252.379	     0.000	     0.000	     0.878	     1.007
530.00	-2681.955	-4531.561	 3635.286	  20.594	 806.904	1.379	    25.926	    11.957	  5269.560	     0.000	     0.000	     0.878	     1.049
531.00	-2681.600	-4530.994	 3634.846	  19.793	 796.363	1.355	    28.799	    11.751	  5286.828	     0.000	     0.000	     0.878	     1.095
532.00	-2681.250	-4530.435	 3634.411	  19.003	 785.367	1.332	    31.718	    11.545	  5304.184	     0.000	     0.000	     0.878	     1.142
533.00	-2680.906	-4529.884	 3633.982	  18.224	 773.884	1.309	    34.815	    11.338	  5321.627	     0.000	     0.000	     0.878	     1.193
534.00	-2680.566	-4529.342	 3633.560	  17.457	 761.880	1.287	    38.075	    11.132	  5339.157	     0.000	     0.000	     0.878	     1.248
535.00	-2680.233	-4528.808	 3633.144	  16.703	 749.316	1.266	    41.480	    10.926	  5356.773	     0.000	     0.000	     0.878	     1.307
536.00	-2679.905	-4528.284	 3632.735	  15.961	 736.157	1.245	    45.000	    10.720	  5374.474	     0.000	     0.000	     0.878	     1.369
537.00	-2679.583	-4527.769	 3632.334	  15.232	 722.367	1.225	    48.602	    10.514	  5392.259	     0.000	     0.000	     0.878	     1.435
538.00	-2679.268	-4527.264	 3631.940	  14.518	 707.912	1.205	    52.241	    10.307	  5410.128	     0.000	     0.000	     0.878	     1.505
539.00	-2678.959	-4526.769	 3631.554	  13.819	 692.764	1.187	    55.865	    10.101	  5428.079	     0.000	     0.000	     0.878	     1.577
540.00	-2678.657	-4526.286	 3631.177	  13.135	 676.898	1.168	    59.414	     9.895	  5446.111	     0.000	     0.000	     0.878	     1.651
541.00	-2678.363	-4525.814	 3630.808	  12.467	 660.299	1.151	    62.821	     9.689	  5464.223	     0.000	     0.000	     0.878	     1.726
542.00	-2678.077	-4525.355	 3630.449	  11.817	 642.959	1.134	    66.013	     9.482	  5482.412	     0.000	     0.000	     0.878	     1.802
543.00	-2677.798	-4524.908	 3630.099	  11.184	 624.881	1.118	    68.913	     9.276	  5500.679	     0.000	     0.000	     0.878	     1.876
544.00	-2677.528	-4524.474	 3629.760	  10.570	 606.117	1.102	    70.726	     9.070	  5519.020	     0.000	     0.000	     0.878	     1.938
545.00	-2677.266	-4524.054	 3629.431	   9.974	 586.844	1.087	    71.492	     8.864	  5537.435	     0.000	     0.000	     0.878	     1.986
546.00	-2677.013	-4523.647	 3629.112	   9.398	 567.140	1.073	    71.736	     8.658	  5555.923	     0.000	     0.000	     0.878	     2.027
547.00	-2676.769	-4523.255	 3628.805	   8.842	 547.075	1.060	    71.458	     8.451	  5574.484	     0.000	     0.000	     0.878	     2.060
548.00	-2676.534	-4522.877	 3628.508	   8.307	 526.727	1.047	    70.669	     8.245	  5593.117	     0.000	     0.000	     0.878	     2.085
549.00	-2676.308	-4522.513	 3628.223	   7.791	 506.178	1.035	    69.392	     8.039	  5611.821	     0.000	     0.000	     0.878	     2.102
550.00	-2676.092	-4522.164	 3627.949	   7.297	 485.514	1.024	    67.662	     7.833	  5630.597	     0.000	     0.000	     0.878	     2.110
551.00	-2675.884	-4521.830	 3627.686	   6.823	 464.818	1.013	    65.522	     7.627	  5649.445	     0.000	     0.000	     0.878	     2.109
552.00	-2675.686	-4521.510	 3627.435	   6.369	 444.176	1.003	    63.023	     7.420	  5668.365	     0.000	     0.000	     0.878	     2.100
553.00	-2675.497	-4521.205	 3627.195	   5.937	 423.783	0.994	    60.243	     7.214	  5687.359	     0.000	     0.000	     0.878	     2.046
554.00	-2675.316	-4520.914	 3626.965	   5.524	 404.171	0.986	    57.374	     7.008	  5706.426	     0.000	     0.000	     0.878	     1.962
555.00	-2675.145	-4520.636	 3626.747	   5.130	 385.353	0.977	    54.469	     6.802	  5725.568	     0.000	     0.000	     0.878	     1.884
556.00	-2674.981	-4520.372	 3626.538	   4.755	 367.278	0.970	    51.550	     6.596	  5744.787	     0.000	     0.000	     0.878	     1.810
557.00	-2674.825	-4520.120	 3626.340	   4.397	 349.898	0.963	    48.633	     6.389	  5764.083	     0.000	     0.000	     0.878	     1.741
558.00	-2674.677	-4519.880	 3626.150	   4.057	 333.164	0.957	    45.735	     6.183	  5783.458	     0.000	     0.000	     0.878	     1.678
559.00	-2674.536	-4519.651	 3625.970	   3.732	 317.027	0.951	    42.868	     5.977	  5802.915	     0.000	     0.000	     0.878	     1.619
560.00	-2674.402	-4519.434	 3625.798	   3.424	 301.440	0.945	    40.043	     5.771	  5822.454	     0.000	     0.000	     0.878	     1.565
561.00	-2674.275	-4519.227	 3625.635	   3.131	 286.358	0.940	    37.268	     5.564	  5842.078	     0.000	     0.000	     0.878	     1.515
562.00	-2674.155	-4519.031	 3625.480	   2.853	 271.737	0.935	    34.552	     5.358	  5861.789	     0.000	     0.000	     0.878	     1.470
563.00	-2674.041	-4518.845	 3625.332	   2.589	 257.534	0.931	    31.900	     5.152	  5881.590	     0.000	     0.000	     0.878	     1.429
564.00	-2673.933	-4518.669	 3625.193	   2.339	 243.709	0.927	    29.318	     4.946	  5901.483	     0.000	     0.000	     0.878	     1.393
565.00	-2673.831	-4518.503	 3625.061	   2.103	 230.223	0.924	    26.811	     4.740	  5921.471	     0.000	     0.000	     0.878	     1.360
566.00	-2673.734	-4518.346	 3624.936	   1.880	 217.039	0.921	    24.384	     4.533	  5941.556	     0.000	     0.000	     0.878	     1.331
567.00	-2673.644	-4518.198	 3624.819	   1.670	 204.121	0.918	    22.041	     4.327	  5961.742	     0.000	     0.000	     0.878	     1.305
568.00	-2673.559	-4518.059	 3624.709	   1.473	 191.435	0.915	    19.786	     4.121	  5982.032	     0.000	     0.000	     0.878	     1.283
569.00	-2673.480	-4517.929	 3624.605	   1.288	 178.947	0.913	    17.624	     3.915	  6002.429	     0.000	     0.000	     0.878	     1.264
570.00	-2673.406	-4517.808	 3624.509	   1.116	 166.627	0.911	    15.558	     3.709	  6022.936	     0.000	     0.000	     0.878	     1.249
571.00	-2673.338	-4517.696	 3624.419	   0.956	 154.390	0.909	    13.586	     3.502	  6043.558	     0.000	     0.000	     0.878	     1.245
572.00	-2673.275	-4517.592	 3624.336	   0.809	 142.192	0.908	    11.709	     3.296	  6064.299	     0.000	     0.000	     0.878	     1.241
573.00	-2673.217	-4517.497	 3624.260	   0.673	 130.025	0.906	     9.938	     3.090	  6085.162	     0.000	     0.000	     0.878	     1.238
574.00	-2673.164	-4517.410	 3624.191	   0.550	 117.882	0.905	     8.284	     2.884	  6106.151	     0.000	     0.000	     0.878	     1.236
575.00	-2673.117	-4517.332	 3624.129	   0.439	 105.753	0.905	     6.756	     2.678	  6127.272	     0.000	     0.000	     0.878	     1.235
576.00	-2673.075	-4517.262	 3624.073	   0.340	  93.626	0.904	     5.363	     2.471	  6148.529	     0.000	     0.000	     0.878	     1.236
577.00	-2673.038	-4517.201	 3624.024	   0.253	  81.488	0.903	     4.113	     2.265	  6169.926	     0.000	     0.000	     0.878	     1.238
578.00	-2673.007	-4517.149	 3623.982	   0.178	  69.322	0.903	     3.015	     2.059	  6191.470	     0.000	     0.000	     0.878	     1.241
579.00	-2672.980	-4517.105	 3623.947	   0.115	  57.112	0.903	     2.074	     1.853	  6213.165	     0.000	     0.000	     0.878	     1.247
580.00	-2672.959	-4517.070	 3623.919	   0.065	  44.836	0.902	     1.300	     1.646	  6235.016	     0.000	     0.000	     0.878	     1.254
581.00	-2672.944	-4517.043	 3623.898	   0.027	  32.475	0.902	     0.699	     1.440	  6257.030	     0.000	     0.000	     0.878	     1.264
582.00	-2672.933	-4517.026	 3623.884	   0.001	  20.004	0.902	     0.279	     1.234	  6279.213	     0.000	     0.000	     0.878	     1.276
