#Time	x(km)		y(km)		z(km)		alt(km)	    relVel		dwnrng(km)	 Q(kPa)	   Fuel(tons) dV_tot	  dV_grav	  dv_drag		 throttle	accel (g's)
-59.10	  917.850	-5526.323	 3049.252	   0.000	   0.000	0.000	     0.000	   385.000	     0.000	     0.000	     0.000	     0.000	     0.000
-58.10	  917.850	-5526.323	 3049.252	   0.000	   0.000	0.000	     0.000	   385.000	     0.000	     0.000	     0.000	     0.000	     0.000
-57.10	  917.850	-5526.323	 3049.252	   0.000	   0.000	0.000	     0.000	   385.000	     0.000	     0.000	     0.000	     0.000	     0.000
-56.10	  917.850	-5526.323	 3049.252	   0.000	   0.000	0.000	     0.000	   385.000	     0.000	     0.000	     0.000	     0.000	     0.000
-55.10	  917.850	-5526.323	 3049.252	   0.000	   0.000	0.000	     0.000	   385.000	     0.000	     0.000	     0.000	     0.000	     0.000
-54.10	  917.850	-5526.323	 3049.252	   0.000	   0.000	0.000	     0.000	   385.000	     0.000	     0.000	     0.000	     0.000	     0.000
-53.10	  917.850	-5526.323	 3049.252	   0.000	   0.000	0.000	     0.000	   385.000	     0.000	     0.000	     0.000	     0.000	     0.000
-52.10	  917.850	-5526.323	 3049.252	   0.000	   0.000	0.000	     0.000	   385.000	     0.000	     0.000	     0.000	     0.000	     0.000
-51.10	  917.850	-5526.323	 3049.252	   0.000	   0.000	0.000	     0.000	   385.000	     0.000	     0.000	     0.000	     0.000	     0.000
-50.10	  917.850	-5526.323	 3049.252	   0.000	   0.000	0.000	     0.000	   385.000	     0.000	     0.000	     0.000	     0.000	     0.000
-49.10	  917.850	-5526.323	 3049.252	   0.000	   0.000	0.000	     0.000	   385.000	     0.000	     0.000	     0.000	     0.000	     0.000
-48.10	  917.850	-5526.323	 3049.252	   0.000	   0.000	0.000	     0.000	   385.000	     0.000	     0.000	     0.000	     0.000	     0.000
-47.10	  917.850	-5526.323	 3049.252	   0.000	   0.000	0.000	     0.000	   385.000	     0.000	     0.000	     0.000	     0.000	     0.000
-46.10	  917.850	-5526.323	 3049.252	   0.000	   0.000	0.000	     0.000	   385.000	     0.000	     0.000	     0.000	     0.000	     0.000
-45.10	  917.850	-5526.323	 3049.252	   0.000	   0.000	0.000	     0.000	   385.000	     0.000	     0.000	     0.000	     0.000	     0.000
-44.10	  917.850	-5526.323	 3049.252	   0.000	   0.000	0.000	     0.000	   385.000	     0.000	     0.000	     0.000	     0.000	     0.000
-43.10	  917.850	-5526.323	 3049.252	   0.000	   0.000	0.000	     0.000	   385.000	     0.000	     0.000	     0.000	     0.000	     0.000
-42.10	  917.850	-5526.323	 3049.252	   0.000	   0.000	0.000	     0.000	   385.000	     0.000	     0.000	     0.000	     0.000	     0.000
-41.10	  917.850	-5526.323	 3049.252	   0.000	   0.000	0.000	     0.000	   385.000	     0.000	     0.000	     0.000	     0.000	     0.000
-40.10	  917.850	-5526.323	 3049.252	   0.000	   0.000	0.000	     0.000	   385.000	     0.000	     0.000	     0.000	     0.000	     0.000
-39.10	  917.850	-5526.323	 3049.252	   0.000	   0.000	0.000	     0.000	   385.000	     0.000	     0.000	     0.000	     0.000	     0.000
-38.10	  917.850	-5526.323	 3049.252	   0.000	   0.000	0.000	     0.000	   385.000	     0.000	     0.000	     0.000	     0.000	     0.000
-37.10	  917.850	-5526.323	 3049.252	   0.000	   0.000	0.000	     0.000	   385.000	     0.000	     0.000	     0.000	     0.000	     0.000
-36.10	  917.850	-5526.323	 3049.252	   0.000	   0.000	0.000	     0.000	   385.000	     0.000	     0.000	     0.000	     0.000	     0.000
-35.10	  917.850	-5526.323	 3049.252	   0.000	   0.000	0.000	     0.000	   385.000	     0.000	     0.000	     0.000	     0.000	     0.000
-34.10	  917.850	-5526.323	 3049.252	   0.000	   0.000	0.000	     0.000	   385.000	     0.000	     0.000	     0.000	     0.000	     0.000
-33.10	  917.850	-5526.323	 3049.252	   0.000	   0.000	0.000	     0.000	   385.000	     0.000	     0.000	     0.000	     0.000	     0.000
-32.10	  917.850	-5526.323	 3049.252	   0.000	   0.000	0.000	     0.000	   385.000	     0.000	     0.000	     0.000	     0.000	     0.000
-31.10	  917.850	-5526.323	 3049.252	   0.000	   0.000	0.000	     0.000	   385.000	     0.000	     0.000	     0.000	     0.000	     0.000
-30.10	  917.850	-5526.323	 3049.252	   0.000	   0.000	0.000	     0.000	   385.000	     0.000	     0.000	     0.000	     0.000	     0.000
-29.10	  917.850	-5526.323	 3049.252	   0.000	   0.000	0.000	     0.000	   385.000	     0.000	     0.000	     0.000	     0.000	     0.000
-28.10	  917.850	-5526.323	 3049.252	   0.000	   0.000	0.000	     0.000	   385.000	     0.000	     0.000	     0.000	     0.000	     0.000
-27.10	  917.850	-5526.323	 3049.252	   0.000	   0.000	0.000	     0.000	   385.000	     0.000	     0.000	     0.000	     0.000	     0.000
-26.10	  917.850	-5526.323	 3049.252	   0.000	   0.000	0.000	     0.000	   385.000	     0.000	     0.000	     0.000	     0.000	     0.000
-25.10	  917.850	-5526.323	 3049.252	   0.000	   0.000	0.000	     0.000	   385.000	     0.000	     0.000	     0.000	     0.000	     0.000
-24.10	  917.850	-5526.323	 3049.252	   0.000	   0.000	0.000	     0.000	   385.000	     0.000	     0.000	     0.000	     0.000	     0.000
-23.10	  917.850	-5526.323	 3049.252	   0.000	   0.000	0.000	     0.000	   385.000	     0.000	     0.000	     0.000	     0.000	     0.000
-22.10	  917.850	-5526.323	 3049.252	   0.000	   0.000	0.000	     0.000	   385.000	     0.000	     0.000	     0.000	     0.000	     0.000
-21.10	  917.850	-5526.323	 3049.252	   0.000	   0.000	0.000	     0.000	   385.000	     0.000	     0.000	     0.000	     0.000	     0.000
-20.10	  917.850	-5526.323	 3049.252	   0.000	   0.000	0.000	     0.000	   385.000	     0.000	     0.000	     0.000	     0.000	     0.000
-19.10	  917.850	-5526.323	 3049.252	   0.000	   0.000	0.000	     0.000	   385.000	     0.000	     0.000	     0.000	     0.000	     0.000
-18.10	  917.850	-5526.323	 3049.252	   0.000	   0.000	0.000	     0.000	   385.000	     0.000	     0.000	     0.000	     0.000	     0.000
-17.10	  917.850	-5526.323	 3049.252	   0.000	   0.000	0.000	     0.000	   385.000	     0.000	     0.000	     0.000	     0.000	     0.000
-16.10	  917.850	-5526.323	 3049.252	   0.000	   0.000	0.000	     0.000	   385.000	     0.000	     0.000	     0.000	     0.000	     0.000
-15.10	  917.850	-5526.323	 3049.252	   0.000	   0.000	0.000	     0.000	   385.000	     0.000	     0.000	     0.000	     0.000	     0.000
-14.10	  917.850	-5526.323	 3049.252	   0.000	   0.000	0.000	     0.000	   385.000	     0.000	     0.000	     0.000	     0.000	     0.000
-13.10	  917.850	-5526.323	 3049.252	   0.000	   0.000	0.000	     0.000	   385.000	     0.000	     0.000	     0.000	     0.000	     0.000
-12.10	  917.850	-5526.323	 3049.252	   0.000	   0.000	0.000	     0.000	   385.000	     0.000	     0.000	     0.000	     0.000	     0.000
-11.10	  917.850	-5526.323	 3049.252	   0.000	   0.000	0.000	     0.000	   385.000	     0.000	     0.000	     0.000	     0.000	     0.000
-10.10	  917.850	-5526.323	 3049.252	   0.000	   0.000	0.000	     0.000	   385.000	     0.000	     0.000	     0.000	     0.000	     0.000
 -9.10	  917.850	-5526.323	 3049.252	   0.000	   0.000	0.000	     0.000	   385.000	     0.000	     0.000	     0.000	     0.000	     0.000
 -8.10	  917.850	-5526.323	 3049.252	   0.000	   0.000	0.000	     0.000	   385.000	     0.000	     0.000	     0.000	     0.000	     0.000
 -7.10	  917.850	-5526.323	 3049.252	   0.000	   0.000	0.000	     0.000	   385.000	     0.000	     0.000	     0.000	     0.000	     0.000
 -6.10	  917.850	-5526.323	 3049.252	   0.000	   0.000	0.000	     0.000	   385.000	     0.000	     0.000	     0.000	     0.000	     0.000
 -5.10	  917.850	-5526.323	 3049.252	   0.000	   0.000	0.000	     0.000	   385.000	     0.000	     0.000	     0.000	     0.000	     0.000
 -4.10	  917.850	-5526.323	 3049.252	   0.000	   0.000	0.000	     0.000	   385.000	     0.000	     0.000	     0.000	     0.000	     0.000
 -3.10	  917.850	-5526.323	 3049.252	   0.000	   0.000	0.000	     0.000	   385.000	     0.000	     0.000	     0.000	     0.000	     0.000
 -2.10	  917.850	-5526.323	 3049.252	   0.000	   0.000	0.000	     0.000	   385.000	     0.000	     0.000	     0.000	     0.000	     0.000
 -1.10	  917.850	-5526.323	 3049.252	   0.000	   0.000	0.000	     0.000	   383.097	    10.406	     0.000	     0.000	     1.000	     0.000
 -0.10	  917.850	-5526.323	 3049.252	   0.000	   0.000	0.000	     0.000	   380.982	    22.014	     0.000	     0.000	     1.000	     0.000
  0.00	  917.850	-5526.323	 3049.252	   0.000	   0.000	0.000	     0.000	   380.770	    23.177	     0.000	     0.000	     1.000	     0.000
  1.00	  917.850	-5526.324	 3049.252	   0.001	   1.707	0.000	     0.001	   378.867	    33.671	     0.000	     0.000	     1.000	     0.192
  2.00	  917.850	-5526.326	 3049.254	   0.004	   3.645	0.000	     0.007	   376.752	    45.377	     0.000	     0.000	     1.000	     0.197
  3.00	  917.851	-5526.330	 3049.256	   0.008	   5.634	0.000	     0.018	   374.637	    57.134	     0.000	     0.000	     1.000	     0.203
  4.00	  917.852	-5526.336	 3049.259	   0.015	   7.673	0.000	     0.034	   372.522	    68.943	     0.000	     0.000	     1.000	     0.208
  5.00	  917.853	-5526.344	 3049.264	   0.024	   9.765	0.001	     0.056	   370.407	    80.802	     0.000	     0.000	     1.000	     0.213
  6.00	  917.854	-5526.354	 3049.269	   0.035	  11.908	0.001	     0.084	   368.292	    92.715	     0.000	     0.000	     1.000	     0.219
  7.00	  917.856	-5526.365	 3049.275	   0.048	  14.105	0.001	     0.118	   366.178	   104.681	     0.000	     0.000	     1.000	     0.224
  8.00	  917.858	-5526.379	 3049.282	   0.063	  16.333	0.001	     0.159	   364.063	   116.701	     0.000	     0.000	     1.000	     0.239
  9.00	  917.861	-5526.394	 3049.291	   0.081	  18.644	0.000	     0.207	   361.948	   128.776	     0.000	     0.000	     1.000	     0.245
 10.00	  917.865	-5526.411	 3049.302	   0.101	  21.030	0.001	     0.264	   359.833	   140.906	     0.000	     0.000	     1.000	     0.250
 11.00	  917.871	-5526.429	 3049.313	   0.123	  23.485	0.003	     0.329	   357.718	   153.093	     0.000	     0.000	     1.000	     0.256
 12.00	  917.877	-5526.449	 3049.326	   0.148	  26.006	0.006	     0.403	   355.603	   165.338	     0.000	     0.000	     1.000	     0.261
 13.00	  917.884	-5526.472	 3049.341	   0.175	  28.591	0.010	     0.487	   353.488	   177.640	     0.000	     0.000	     1.000	     0.267
 14.00	  917.892	-5526.496	 3049.357	   0.205	  31.240	0.015	     0.580	   351.373	   190.002	     0.000	     0.000	     1.000	     0.273
 15.00	  917.901	-5526.522	 3049.375	   0.237	  33.952	0.020	     0.684	   349.258	   202.424	     0.000	     0.000	     1.000	     0.279
 16.00	  917.911	-5526.550	 3049.394	   0.272	  36.726	0.026	     0.798	   347.144	   214.907	     0.000	     0.000	     1.000	     0.285
 17.00	  917.922	-5526.581	 3049.415	   0.310	  39.563	0.032	     0.924	   345.029	   227.452	     0.000	     0.000	     1.000	     0.291
 18.00	  917.934	-5526.613	 3049.438	   0.350	  42.463	0.040	     1.061	   342.914	   240.059	     0.000	     0.000	     1.000	     0.297
 19.00	  917.947	-5526.648	 3049.462	   0.393	  45.426	0.048	     1.210	   340.799	   252.731	     0.000	     0.000	     1.000	     0.304
 20.00	  917.961	-5526.685	 3049.488	   0.440	  48.454	0.057	     1.371	   338.684	   265.467	     0.000	     0.000	     1.000	     0.310
 21.00	  917.976	-5526.724	 3049.515	   0.489	  51.547	0.067	     1.545	   336.569	   278.269	     0.000	     0.000	     1.000	     0.317
 22.00	  917.992	-5526.765	 3049.545	   0.541	  54.705	0.077	     1.732	   334.454	   291.138	     0.000	     0.000	     1.000	     0.323
 23.00	  918.010	-5526.809	 3049.576	   0.596	  57.929	0.088	     1.932	   332.339	   304.074	     0.000	     0.000	     1.000	     0.330
 24.00	  918.028	-5526.856	 3049.609	   0.655	  61.221	0.100	     2.147	   330.224	   317.080	     0.000	     0.000	     1.000	     0.337
 25.00	  918.048	-5526.905	 3049.644	   0.717	  64.580	0.113	     2.376	   328.110	   330.156	     0.000	     0.000	     1.000	     0.344
 26.00	  918.068	-5526.956	 3049.681	   0.782	  68.009	0.127	     2.619	   325.995	   343.302	     0.000	     0.000	     1.000	     0.351
 27.00	  918.090	-5527.010	 3049.720	   0.850	  71.507	0.141	     2.877	   323.880	   356.521	     0.000	     0.000	     1.000	     0.358
 28.00	  918.113	-5527.067	 3049.760	   0.922	  75.076	0.156	     3.150	   321.765	   369.813	     0.000	     0.000	     1.000	     0.365
 29.00	  918.137	-5527.127	 3049.803	   0.998	  78.717	0.172	     3.438	   319.650	   383.180	     0.000	     0.000	     1.000	     0.373
 30.00	  918.163	-5527.189	 3049.848	   1.077	  82.431	0.188	     3.742	   317.535	   396.622	     0.000	     0.000	     1.000	     0.380
 31.00	  918.189	-5527.255	 3049.895	   1.159	  86.220	0.206	     4.061	   315.420	   410.141	     0.000	     0.000	     1.000	     0.388
 32.00	  918.217	-5527.323	 3049.944	   1.246	  90.083	0.224	     4.397	   313.305	   423.738	     0.000	     0.000	     1.000	     0.395
 33.00	  918.245	-5527.395	 3049.995	   1.336	  94.022	0.243	     4.748	   311.190	   437.414	     0.000	     0.000	     1.000	     0.403
 34.00	  918.275	-5527.469	 3050.048	   1.430	  98.039	0.263	     5.116	   309.076	   451.171	     0.000	     0.000	     1.000	     0.411
 35.00	  918.307	-5527.547	 3050.104	   1.528	 102.134	0.283	     5.499	   306.961	   465.009	     0.000	     0.000	     1.000	     0.419
 36.00	  918.339	-5527.627	 3050.162	   1.631	 106.308	0.305	     5.899	   304.846	   478.930	     0.000	     0.000	     1.000	     0.427
 37.00	  918.373	-5527.712	 3050.222	   1.737	 110.564	0.327	     6.314	   302.731	   492.935	     0.000	     0.000	     1.000	     0.436
 38.00	  918.408	-5527.799	 3050.285	   1.848	 114.901	0.350	     6.745	   300.616	   507.026	     0.000	     0.000	     1.000	     0.444
 39.00	  918.445	-5527.890	 3050.350	   1.962	 119.321	0.374	     7.192	   298.501	   521.203	     0.000	     0.000	     1.000	     0.453
 40.00	  918.482	-5527.985	 3050.417	   2.082	 123.826	0.398	     7.654	   296.386	   535.469	     0.000	     0.000	     1.000	     0.461
 41.00	  918.521	-5528.083	 3050.487	   2.205	 128.417	0.424	     8.131	   294.271	   549.823	     0.000	     0.000	     1.000	     0.470
 42.00	  918.562	-5528.184	 3050.559	   2.334	 133.094	0.450	     8.623	   292.156	   564.269	     0.000	     0.000	     1.000	     0.479
 43.00	  918.603	-5528.290	 3050.634	   2.467	 137.859	0.477	     9.128	   290.042	   578.806	     0.000	     0.000	     1.000	     0.488
 44.00	  918.646	-5528.399	 3050.712	   2.605	 142.714	0.505	     9.648	   287.927	   593.437	     0.000	     0.000	     1.000	     0.497
 45.00	  918.691	-5528.512	 3050.792	   2.747	 147.660	0.533	    10.180	   285.812	   608.163	     0.000	     0.000	     1.000	     0.507
 46.00	  918.736	-5528.629	 3050.875	   2.895	 152.698	0.563	    10.724	   283.697	   622.984	     0.000	     0.000	     1.000	     0.516
 47.00	  918.784	-5528.750	 3050.961	   3.047	 157.829	0.593	    11.280	   281.582	   637.903	     0.000	     0.000	     1.000	     0.526
 48.00	  918.832	-5528.875	 3051.050	   3.205	 163.056	0.625	    11.846	   279.467	   652.921	     0.000	     0.000	     1.000	     0.536
 49.00	  918.882	-5529.005	 3051.141	   3.368	 168.377	0.657	    12.422	   277.352	   668.039	     0.000	     0.000	     1.000	     0.545
 50.00	  918.934	-5529.139	 3051.236	   3.536	 173.793	0.690	    13.005	   275.237	   683.258	     0.000	     0.000	     1.000	     0.555
 51.00	  918.987	-5529.277	 3051.333	   3.709	 179.304	0.723	    13.596	   273.122	   698.581	     0.000	     0.000	     1.000	     0.565
 52.00	  919.042	-5529.419	 3051.433	   3.888	 184.913	0.758	    14.191	   271.008	   714.008	     0.000	     0.000	     1.000	     0.575
 53.00	  919.098	-5529.566	 3051.537	   4.073	 190.621	0.793	    14.791	   268.893	   729.540	     0.000	     0.000	     1.000	     0.585
 54.00	  919.155	-5529.718	 3051.643	   4.263	 196.427	0.830	    15.394	   266.778	   745.180	     0.000	     0.000	     1.000	     0.595
 55.00	  919.214	-5529.875	 3051.753	   4.460	 202.333	0.867	    15.997	   264.663	   760.929	     0.000	     0.000	     1.000	     0.605
 56.00	  919.276	-5530.035	 3051.866	   4.662	 208.480	0.906	    16.620	   262.548	   776.787	     0.000	     0.000	     1.000	     0.659
 57.00	  919.341	-5530.200	 3051.984	   4.869	 214.746	0.948	    17.246	   260.433	   792.757	     0.000	     0.000	     1.000	     0.674
 58.00	  919.409	-5530.368	 3052.105	   5.083	 221.135	0.994	    17.871	   258.318	   808.839	     0.000	     0.000	     1.000	     0.688
 59.00	  919.482	-5530.540	 3052.231	   5.302	 227.646	1.042	    18.494	   256.203	   825.036	     0.000	     0.000	     1.000	     0.703
 60.00	  919.558	-5530.716	 3052.361	   5.527	 234.284	1.095	    19.112	   254.088	   841.348	     0.000	     0.000	     1.000	     0.718
 61.00	  919.637	-5530.896	 3052.495	   5.759	 241.049	1.151	    19.725	   251.974	   857.777	     0.000	     0.000	     1.000	     0.734
 62.00	  919.721	-5531.080	 3052.634	   5.996	 247.943	1.210	    20.329	   249.859	   874.323	     0.000	     0.000	     1.000	     0.749
 63.00	  919.810	-5531.267	 3052.778	   6.240	 254.970	1.274	    20.923	   247.744	   890.990	     0.000	     0.000	     1.000	     0.765
 64.00	  919.902	-5531.458	 3052.926	   6.489	 262.130	1.342	    21.505	   245.629	   907.777	     0.000	     0.000	     1.000	     0.781
 65.00	  919.999	-5531.654	 3053.080	   6.745	 269.426	1.415	    22.073	   243.514	   924.686	     0.000	     0.000	     1.000	     0.798
 66.00	  920.101	-5531.853	 3053.238	   7.008	 276.860	1.492	    22.624	   241.399	   941.719	     0.000	     0.000	     1.000	     0.814
 67.00	  920.208	-5532.055	 3053.401	   7.277	 284.433	1.574	    23.157	   239.284	   958.876	     0.000	     0.000	     1.000	     0.831
 68.00	  920.320	-5532.262	 3053.570	   7.552	 292.149	1.661	    23.668	   237.169	   976.160	     0.000	     0.000	     1.000	     0.848
 69.00	  920.437	-5532.472	 3053.744	   7.834	 300.008	1.753	    24.155	   235.054	   993.570	     0.000	     0.000	     1.000	     0.865
 70.00	  920.560	-5532.686	 3053.923	   8.122	 308.014	1.850	    24.617	   232.940	  1011.110	     0.000	     0.000	     1.000	     0.883
 71.00	  920.688	-5532.903	 3054.108	   8.417	 316.168	1.953	    25.051	   230.825	  1028.779	     0.000	     0.000	     1.000	     0.900
 72.00	  920.822	-5533.125	 3054.298	   8.719	 324.472	2.062	    25.455	   228.710	  1046.579	     0.000	     0.000	     1.000	     0.918
 73.00	  920.961	-5533.349	 3054.494	   9.027	 332.928	2.176	    25.826	   226.595	  1064.512	     0.000	     0.000	     1.000	     0.936
 74.00	  921.107	-5533.578	 3054.696	   9.342	 341.539	2.297	    26.161	   224.480	  1082.578	     0.000	     0.000	     1.000	     0.954
 75.00	  921.260	-5533.810	 3054.905	   9.664	 350.307	2.424	    26.460	   222.365	  1100.780	     0.000	     0.000	     1.000	     0.973
 76.00	  921.418	-5534.045	 3055.119	   9.993	 359.233	2.558	    26.720	   220.250	  1119.117	     0.000	     0.000	     1.000	     0.992
 77.00	  921.584	-5534.284	 3055.339	  10.329	 368.321	2.699	    26.939	   218.135	  1137.591	     0.000	     0.000	     1.000	     1.010
 78.00	  921.756	-5534.527	 3055.566	  10.672	 377.572	2.846	    27.114	   216.021	  1156.205	     0.000	     0.000	     1.000	     1.029
 79.00	  921.935	-5534.772	 3055.799	  11.022	 386.989	3.001	    27.245	   213.906	  1174.958	     0.000	     0.000	     1.000	     1.049
 80.00	  922.121	-5535.022	 3056.038	  11.379	 396.577	3.164	    27.046	   211.791	  1193.852	     0.000	     0.000	     1.000	     1.069
 81.00	  922.315	-5535.274	 3056.285	  11.743	 406.339	3.334	    26.821	   209.676	  1212.888	     0.000	     0.000	     1.000	     1.089
 82.00	  922.517	-5535.530	 3056.538	  12.114	 416.279	3.512	    26.559	   207.561	  1232.067	     0.000	     0.000	     1.000	     1.109
 83.00	  922.726	-5535.789	 3056.797	  12.493	 426.405	3.698	    26.263	   205.446	  1251.389	     0.000	     0.000	     1.000	     1.131
 84.00	  922.943	-5536.051	 3057.064	  12.878	 436.727	3.892	    25.935	   203.331	  1270.857	     0.000	     0.000	     1.000	     1.153
 85.00	  923.169	-5536.316	 3057.338	  13.271	 447.247	4.095	    25.575	   201.216	  1290.471	     0.000	     0.000	     1.000	     1.175
 86.10	  923.427	-5536.611	 3057.648	  13.712	 459.052	4.328	    25.146	   198.890	  1312.217	     0.000	     0.000	     1.000	     1.200
 87.10	  923.670	-5536.883	 3057.938	  14.121	 469.997	4.550	    24.725	   196.775	  1332.141	     0.000	     0.000	     1.000	     1.222
 88.10	  923.922	-5537.157	 3058.235	  14.537	 481.149	4.781	    24.278	   194.660	  1352.216	     0.000	     0.000	     1.000	     1.245
 89.10	  924.184	-5537.435	 3058.539	  14.960	 492.508	5.022	    23.804	   192.545	  1372.441	     0.000	     0.000	     1.000	     1.268
 90.10	  924.454	-5537.715	 3058.852	  15.391	 504.077	5.273	    23.308	   190.430	  1392.818	     0.000	     0.000	     1.000	     1.291
 91.10	  924.735	-5537.998	 3059.172	  15.830	 515.859	5.533	    22.789	   188.315	  1413.349	     0.000	     0.000	     1.000	     1.314
 92.10	  925.024	-5538.284	 3059.500	  16.276	 527.855	5.804	    22.249	   186.201	  1434.034	     0.000	     0.000	     1.000	     1.337
 93.10	  925.324	-5538.573	 3059.837	  16.730	 540.069	6.085	    21.692	   184.086	  1454.876	     0.000	     0.000	     1.000	     1.361
 94.10	  925.634	-5538.864	 3060.182	  17.192	 552.500	6.378	    21.117	   181.971	  1475.876	     0.000	     0.000	     1.000	     1.385
 95.10	  925.954	-5539.158	 3060.535	  17.661	 565.153	6.681	    20.528	   179.856	  1497.035	     0.000	     0.000	     1.000	     1.409
 96.10	  926.285	-5539.455	 3060.896	  18.139	 578.029	6.996	    19.927	   177.741	  1518.354	     0.000	     0.000	     1.000	     1.433
 97.10	  926.627	-5539.754	 3061.267	  18.624	 591.129	7.322	    19.314	   175.626	  1539.836	     0.000	     0.000	     1.000	     1.457
 98.10	  926.979	-5540.055	 3061.646	  19.117	 604.457	7.660	    18.693	   173.511	  1561.483	     0.000	     0.000	     1.000	     1.481
 99.10	  927.343	-5540.359	 3062.034	  19.618	 618.013	8.010	    18.065	   171.396	  1583.294	     0.000	     0.000	     1.000	     1.505
100.10	  927.718	-5540.665	 3062.431	  20.127	 631.800	8.372	    17.421	   169.281	  1605.274	     0.000	     0.000	     1.000	     1.530
101.10	  928.105	-5540.973	 3062.837	  20.645	 645.820	8.747	    16.717	   167.167	  1627.423	     0.000	     0.000	     1.000	     1.555
102.10	  928.504	-5541.284	 3063.253	  21.170	 660.077	9.135	    16.017	   165.052	  1649.743	     0.000	     0.000	     1.000	     1.580
103.10	  928.915	-5541.596	 3063.678	  21.703	 674.571	9.536	    15.323	   162.937	  1672.237	     0.000	     0.000	     1.000	     1.605
104.10	  929.338	-5541.911	 3064.113	  22.245	 689.304	9.950	    14.635	   160.822	  1694.906	     0.000	     0.000	     1.000	     1.630
105.10	  929.774	-5542.228	 3064.557	  22.795	 704.279	10.378	    13.957	   158.707	  1717.752	     0.000	     0.000	     1.000	     1.656
106.10	  930.222	-5542.546	 3065.011	  23.353	 719.497	10.819	    13.289	   156.592	  1740.778	     0.000	     0.000	     1.000	     1.681
107.10	  930.684	-5542.867	 3065.475	  23.919	 734.961	11.275	    12.633	   154.477	  1763.987	     0.000	     0.000	     1.000	     1.707
108.10	  931.159	-5543.189	 3065.949	  24.494	 750.672	11.745	    11.991	   152.362	  1787.380	     0.000	     0.000	     1.000	     1.733
109.10	  931.647	-5543.513	 3066.434	  25.077	 766.655	12.230	     0.000	   150.248	  1810.970	     0.000	     0.000	     1.000	     1.780
110.10	  932.149	-5543.838	 3066.928	  25.668	 783.086	12.730	     0.000	   148.133	  1834.791	     0.000	     0.000	     1.000	     1.805
111.10	  932.665	-5544.166	 3067.434	  26.268	 799.756	13.245	     0.000	   146.018	  1858.799	     0.000	     0.000	     1.000	     1.830
112.10	  933.196	-5544.495	 3067.950	  26.877	 816.666	13.776	     0.000	   143.903	  1882.998	     0.000	     0.000	     1.000	     1.855
113.10	  933.741	-5544.825	 3068.477	  27.494	 833.821	14.322	     0.000	   141.788	  1907.391	     0.000	     0.000	     1.000	     1.880
114.10	  934.301	-5545.157	 3069.015	  28.120	 851.224	14.885	     0.000	   139.673	  1931.981	     0.000	     0.000	     1.000	     1.906
115.10	  934.875	-5545.490	 3069.564	  28.755	 868.876	15.464	     0.000	   137.558	  1956.771	     0.000	     0.000	     1.000	     1.932
116.10	  935.465	-5545.824	 3070.124	  29.399	 886.781	16.059	     0.000	   135.443	  1981.764	     0.000	     0.000	     1.000	     1.958
117.10	  936.071	-5546.160	 3070.695	  30.051	 904.942	16.672	     0.000	   133.328	  2006.964	     0.000	     0.000	     1.000	     1.985
118.10	  936.692	-5546.497	 3071.278	  30.712	 923.363	17.302	     0.000	   131.214	  2032.374	     0.000	     0.000	     1.000	     2.011
119.10	  937.328	-5546.834	 3071.873	  31.382	 942.046	17.949	     0.000	   129.099	  2057.997	     0.000	     0.000	     1.000	     2.038
120.10	  937.982	-5547.173	 3072.480	  32.061	 960.995	18.613	     0.000	   126.984	  2083.838	     0.000	     0.000	     1.000	     2.066
121.10	  938.651	-5547.513	 3073.098	  32.749	 980.213	19.296	     0.000	   124.869	  2109.900	     0.000	     0.000	     1.000	     2.093
122.10	  939.337	-5547.853	 3073.728	  33.445	 999.704	19.997	     0.000	   122.754	  2136.187	     0.000	     0.000	     1.000	     2.121
123.10	  940.040	-5548.194	 3074.371	  34.151	1019.472	20.716	     0.000	   120.639	  2162.703	     0.000	     0.000	     1.000	     2.149
124.10	  940.760	-5548.536	 3075.025	  34.866	1039.519	21.455	     0.000	   118.524	  2189.451	     0.000	     0.000	     1.000	     2.178
125.10	  941.497	-5548.879	 3075.692	  35.590	1059.850	22.212	     0.000	   116.409	  2216.437	     0.000	     0.000	     1.000	     2.207
126.10	  942.252	-5549.222	 3076.372	  36.323	1080.469	22.989	     0.000	   114.294	  2243.663	     0.000	     0.000	     1.000	     2.236
127.10	  943.025	-5549.565	 3077.065	  37.065	1101.380	23.785	     0.000	   112.180	  2271.135	     0.000	     0.000	     1.000	     2.266
128.10	  943.816	-5549.909	 3077.770	  37.817	1122.586	24.601	     0.000	   110.065	  2298.857	     0.000	     0.000	     1.000	     2.296
129.10	  944.625	-5550.253	 3078.488	  38.578	1144.092	25.437	     0.000	   107.950	  2326.833	     0.000	     0.000	     1.000	     2.326
130.10	  945.453	-5550.597	 3079.220	  39.348	1165.902	26.294	     0.000	   105.835	  2355.069	     0.000	     0.000	     1.000	     2.357
131.10	  946.300	-5550.942	 3079.964	  40.128	1188.021	27.172	     0.000	   103.720	  2383.569	     0.000	     0.000	     1.000	     2.389
132.10	  947.166	-5551.287	 3080.723	  40.917	1210.453	28.071	     0.000	   101.605	  2412.337	     0.000	     0.000	     1.000	     2.420
133.10	  948.051	-5551.631	 3081.494	  41.716	1233.203	28.991	     0.000	    99.490	  2441.381	     0.000	     0.000	     1.000	     2.452
134.10	  948.956	-5551.976	 3082.280	  42.524	1256.276	29.933	     0.000	    97.375	  2470.703	     0.000	     0.000	     1.000	     2.485
135.10	  949.881	-5552.320	 3083.080	  43.342	1279.677	30.896	     0.000	    95.260	  2500.311	     0.000	     0.000	     1.000	     2.518
136.10	  950.827	-5552.665	 3083.893	  44.170	1303.410	31.883	     0.000	    93.146	  2530.209	     0.000	     0.000	     1.000	     2.552
137.10	  951.792	-5553.009	 3084.721	  45.007	1327.482	32.891	     0.000	    91.031	  2560.403	     0.000	     0.000	     1.000	     2.586
138.10	  952.779	-5553.352	 3085.563	  45.855	1351.898	33.923	     0.000	    88.916	  2590.899	     0.000	     0.000	     1.000	     2.621
139.10	  953.787	-5553.696	 3086.420	  46.712	1376.663	34.978	     0.000	    86.801	  2621.704	     0.000	     0.000	     1.000	     2.656
140.10	  954.816	-5554.039	 3087.292	  47.580	1401.783	36.057	     0.000	    84.686	  2652.824	     0.000	     0.000	     1.000	     2.692
141.10	  955.867	-5554.381	 3088.179	  48.458	1427.265	37.159	     0.000	    82.571	  2684.264	     0.000	     0.000	     1.000	     2.728
142.10	  956.940	-5554.723	 3089.081	  49.346	1453.115	38.286	     0.000	    80.456	  2716.033	     0.000	     0.000	     1.000	     2.766
143.10	  958.035	-5555.064	 3089.998	  50.244	1479.338	39.437	     0.000	    78.341	  2748.136	     0.000	     0.000	     1.000	     2.803
144.10	  959.153	-5555.405	 3090.931	  51.153	1505.942	40.614	     0.000	    76.226	  2780.581	     0.000	     0.000	     1.000	     2.842
145.10	  960.294	-5555.744	 3091.880	  52.072	1532.934	41.816	     0.000	    74.112	  2813.375	     0.000	     0.000	     1.000	     2.881
146.10	  961.458	-5556.083	 3092.844	  53.002	1560.321	43.043	     0.000	    71.997	  2846.526	     0.000	     0.000	     1.000	     2.921
147.10	  962.646	-5556.421	 3093.825	  53.943	1588.110	44.296	     0.000	    69.882	  2880.041	     0.000	     0.000	     1.000	     2.961
148.10	  963.858	-5556.758	 3094.822	  54.895	1616.309	45.576	     0.000	    67.767	  2913.930	     0.000	     0.000	     1.000	     3.002
149.10	  965.094	-5557.094	 3095.835	  55.857	1644.926	46.882	     0.000	    65.652	  2948.199	     0.000	     0.000	     1.000	     3.045
150.10	  966.355	-5557.429	 3096.866	  56.831	1673.969	48.216	     0.000	    63.537	  2982.858	     0.000	     0.000	     1.000	     3.088
151.10	  967.640	-5557.763	 3097.913	  57.816	1703.447	49.577	     0.000	    61.422	  3017.916	     0.000	     0.000	     1.000	     3.131
152.10	  968.952	-5558.096	 3098.977	  58.813	1733.368	50.966	     0.000	    59.307	  3053.383	     0.000	     0.000	     1.000	     3.176
153.10	  970.289	-5558.427	 3100.059	  59.820	1763.741	52.384	     0.000	    57.192	  3089.267	     0.000	     0.000	     1.000	     3.222
154.10	  971.652	-5558.757	 3101.159	  60.840	1794.577	53.830	     0.000	    55.078	  3125.578	     0.000	     0.000	     1.000	     3.268
155.10	  973.041	-5559.086	 3102.277	  61.871	1825.884	55.305	     0.000	    52.963	  3162.327	     0.000	     0.000	     1.000	     3.316
156.10	  974.458	-5559.414	 3103.413	  62.915	1857.674	56.810	     0.000	    50.848	  3199.526	     0.000	     0.000	     1.000	     3.365
157.10	  975.902	-5559.739	 3104.567	  63.970	1889.957	58.345	     0.000	    48.733	  3237.183	     0.000	     0.000	     1.000	     3.415
158.10	  977.373	-5560.064	 3105.740	  65.038	1922.744	59.911	     0.000	    46.618	  3275.313	     0.000	     0.000	     1.000	     3.466
159.10	  978.873	-5560.387	 3106.932	  66.118	1956.046	61.507	     0.000	    44.503	  3313.925	     0.000	     0.000	     1.000	     3.518
160.10	  980.401	-5560.708	 3108.143	  67.211	1989.876	63.135	     0.000	    42.388	  3353.033	     0.000	     0.000	     1.000	     3.571
161.10	  981.958	-5561.027	 3109.374	  68.317	2024.245	64.794	     0.000	    40.273	  3392.649	     0.000	     0.000	     1.000	     3.626
162.10	  983.545	-5561.345	 3110.624	  69.435	2059.168	66.486	     0.000	    38.158	  3432.787	     0.000	     0.000	     1.000	     3.682
163.10	  985.162	-5561.661	 3111.895	  70.567	2094.657	68.210	     0.000	    36.044	  3473.461	     0.000	     0.000	     1.000	     3.739
164.10	  986.809	-5561.975	 3113.186	  71.712	2130.726	69.968	     0.000	    33.929	  3514.686	     0.000	     0.000	     1.000	     3.798
165.10	  988.486	-5562.287	 3114.497	  72.871	2163.183	71.760	     0.000	    32.025	  3552.271	     0.000	     0.000	     0.000	     0.978
166.10	  990.173	-5562.594	 3115.812	  74.028	2158.058	73.563	     0.000	    32.025	  3552.271	     0.000	     0.000	     0.000	     0.977
167.10	  991.857	-5562.892	 3117.122	  75.177	2152.962	75.365	     0.000	    32.025	  3552.271	     0.000	     0.000	     0.000	     0.977
168.10	  993.541	-5563.182	 3118.428	  76.318	2147.894	77.167	     0.000	    32.025	  3552.271	     0.000	     0.000	     0.000	     0.977
169.10	  995.222	-5563.464	 3119.729	  77.449	2141.992	78.968	     0.000	    32.025	  3552.271	     0.000	     0.000	     0.000	     2.653
170.10	  996.902	-5563.737	 3121.024	  78.570	2136.988	80.768	     0.000	    32.025	  3552.271	     0.000	     0.000	     0.000	     0.976
171.10	  998.581	-5564.002	 3122.315	  79.682	2132.014	82.567	     0.000	    32.025	  3552.271	     0.000	     0.000	     0.000	     0.976
172.10	 1000.258	-5564.258	 3123.602	  80.785	2127.069	84.365	     0.000	    32.025	  3552.271	     0.000	     0.000	     0.000	     0.975
173.10	 1001.933	-5564.507	 3124.883	  81.880	2122.154	86.163	     0.000	    32.025	  3552.271	     0.000	     0.000	     0.000	     0.975
174.10	 1003.607	-5564.748	 3126.161	  82.965	2117.269	87.960	     0.000	    32.025	  3552.271	     0.000	     0.000	     0.000	     0.975
175.10	 1005.279	-5564.981	 3127.433	  84.042	2112.413	89.757	     0.000	    32.025	  3552.271	     0.000	     0.000	     0.000	     0.974
176.10	 1006.950	-5565.206	 3128.701	  85.110	2107.588	91.552	     0.000	    32.025	  3552.271	     0.000	     0.000	     0.000	     0.974
177.10	 1008.620	-5565.424	 3129.964	  86.169	2102.794	93.347	     0.000	    32.025	  3552.271	     0.000	     0.000	     0.000	     0.974
178.10	 1010.288	-5565.633	 3131.223	  87.220	2098.030	95.141	     0.000	    32.025	  3552.271	     0.000	     0.000	     0.000	     0.973
179.10	 1011.954	-5565.834	 3132.477	  88.262	2093.296	96.935	     0.000	    32.025	  3552.271	     0.000	     0.000	     0.000	     0.973
180.10	 1013.619	-5566.027	 3133.726	  89.294	2088.593	98.728	     0.000	    32.025	  3552.271	     0.000	     0.000	     0.000	     0.973
181.10	 1015.282	-5566.213	 3134.971	  90.319	2083.921	100.520	     0.000	    32.025	  3552.271	     0.000	     0.000	     0.000	     0.972
182.10	 1016.944	-5566.390	 3136.211	  91.334	2079.281	102.311	     0.000	    32.025	  3552.271	     0.000	     0.000	     0.000	     0.972
183.10	 1018.604	-5566.560	 3137.447	  92.340	2074.671	104.102	     0.000	    32.025	  3552.271	     0.000	     0.000	     0.000	     0.972
184.10	 1020.263	-5566.721	 3138.677	  93.338	2070.093	105.892	     0.000	    32.025	  3552.271	     0.000	     0.000	     0.000	     0.971
185.10	 1021.920	-5566.875	 3139.904	  94.327	2065.547	107.682	     0.000	    32.025	  3552.271	     0.000	     0.000	     0.000	     0.971
186.10	 1023.576	-5567.021	 3141.125	  95.307	2061.032	109.470	     0.000	    32.025	  3552.271	     0.000	     0.000	     0.000	     0.971
187.10	 1025.230	-5567.159	 3142.342	  96.279	2056.550	111.258	     0.000	    32.025	  3552.271	     0.000	     0.000	     0.000	     0.971
188.10	 1026.883	-5567.289	 3143.555	  97.241	2052.099	113.046	     0.000	    32.025	  3552.271	     0.000	     0.000	     0.000	     0.970
189.10	 1028.534	-5567.411	 3144.763	  98.195	2047.680	114.833	     0.000	    32.025	  3552.271	     0.000	     0.000	     0.000	     0.970
190.10	 1030.184	-5567.525	 3145.966	  99.140	2043.294	116.619	     0.000	    32.025	  3552.271	     0.000	     0.000	     0.000	     0.970
191.10	 1031.832	-5567.632	 3147.165	 100.077	2038.941	118.404	     0.000	    32.025	  3552.271	     0.000	     0.000	     0.000	     0.969
192.10	 1033.479	-5567.730	 3148.359	 101.004	2034.620	120.189	     0.000	    32.025	  3552.271	     0.000	     0.000	     0.000	     0.969
193.10	 1035.124	-5567.820	 3149.548	 101.923	2030.332	121.974	     0.000	    32.025	  3552.271	     0.000	     0.000	     0.000	     0.969
194.10	 1036.767	-5567.903	 3150.733	 102.833	2026.077	123.757	     0.000	    32.025	  3552.271	     0.000	     0.000	     0.000	     0.969
195.10	 1038.409	-5567.978	 3151.913	 103.735	2021.856	125.540	     0.000	    32.025	  3552.271	     0.000	     0.000	     0.000	     0.968
196.10	 1040.050	-5568.045	 3153.088	 104.627	2017.668	127.323	     0.000	    32.025	  3552.271	     0.000	     0.000	     0.000	     0.968
197.10	 1041.689	-5568.104	 3154.259	 105.511	2013.513	129.105	     0.000	    32.025	  3552.271	     0.000	     0.000	     0.000	     0.968
198.10	 1043.326	-5568.155	 3155.426	 106.386	2009.392	130.886	     0.000	    32.025	  3552.271	     0.000	     0.000	     0.000	     0.967
199.10	 1044.962	-5568.198	 3156.587	 107.252	2005.304	132.667	     0.000	    32.025	  3552.271	     0.000	     0.000	     0.000	     0.967
200.10	 1046.597	-5568.233	 3157.745	 108.110	2001.251	134.447	     0.000	    32.025	  3552.271	     0.000	     0.000	     0.000	     0.967
201.10	 1048.230	-5568.261	 3158.897	 108.959	1997.232	136.226	     0.000	    32.025	  3552.271	     0.000	     0.000	     0.000	     0.967
202.10	 1049.861	-5568.281	 3160.045	 109.799	1993.248	138.005	     0.000	    32.025	  3552.271	     0.000	     0.000	     0.000	     0.966
203.10	 1051.491	-5568.292	 3161.188	 110.630	1989.297	139.784	     0.000	    32.025	  3552.271	     0.000	     0.000	     0.000	     0.966
204.10	 1053.119	-5568.296	 3162.327	 111.453	1985.382	141.562	     0.000	    32.025	  3552.271	     0.000	     0.000	     0.000	     0.966
205.10	 1054.746	-5568.292	 3163.461	 112.267	1981.501	143.339	     0.000	    32.025	  3552.271	     0.000	     0.000	     0.000	     0.966
206.10	 1056.371	-5568.281	 3164.590	 113.072	1977.656	145.116	     0.000	    32.025	  3552.271	     0.000	     0.000	     0.000	     0.965
207.10	 1057.995	-5568.261	 3165.715	 113.869	1973.845	146.892	     0.000	    32.025	  3552.271	     0.000	     0.000	     0.000	     0.965
208.10	 1059.617	-5568.233	 3166.835	 114.656	1970.070	148.668	     0.000	    32.025	  3552.271	     0.000	     0.000	     0.000	     0.965
209.10	 1061.238	-5568.198	 3167.951	 115.435	1966.330	150.443	     0.000	    32.025	  3552.271	     0.000	     0.000	     0.000	     0.965
210.10	 1062.857	-5568.155	 3169.062	 116.206	1962.626	152.218	     0.000	    32.025	  3552.271	     0.000	     0.000	     0.000	     0.965
211.10	 1064.475	-5568.104	 3170.168	 116.967	1958.958	153.992	     0.000	    32.025	  3552.271	     0.000	     0.000	     0.000	     0.964
212.10	 1066.091	-5568.045	 3171.270	 117.720	1955.326	155.766	     0.000	    32.025	  3552.271	     0.000	     0.000	     0.000	     0.964
213.10	 1067.705	-5567.979	 3172.367	 118.464	1951.730	157.539	     0.000	    32.025	  3552.271	     0.000	     0.000	     0.000	     0.964
214.10	 1069.318	-5567.904	 3173.460	 119.200	1948.170	159.312	     0.000	    32.025	  3552.271	     0.000	     0.000	     0.000	     0.964
215.10	 1070.930	-5567.822	 3174.548	 119.927	1944.646	161.084	     0.000	    32.025	  3552.271	     0.000	     0.000	     0.000	     0.963
216.10	 1072.539	-5567.732	 3175.631	 120.645	1941.160	162.856	     0.000	    32.025	  3552.271	     0.000	     0.000	     0.000	     0.963
217.10	 1074.148	-5567.634	 3176.710	 121.354	1937.710	164.627	     0.000	    32.025	  3552.271	     0.000	     0.000	     0.000	     0.963
218.10	 1075.755	-5567.528	 3177.784	 122.054	1934.297	166.398	     0.000	    32.025	  3552.271	     0.000	     0.000	     0.000	     0.963
219.10	 1077.360	-5567.414	 3178.853	 122.746	1930.921	168.168	     0.000	    32.025	  3552.271	     0.000	     0.000	     0.000	     0.963
220.10	 1078.964	-5567.293	 3179.918	 123.430	1927.582	169.938	     0.000	    32.025	  3552.271	     0.000	     0.000	     0.000	     0.962
221.10	 1080.566	-5567.164	 3180.978	 124.104	1924.281	171.708	     0.000	    32.025	  3552.271	     0.000	     0.000	     0.000	     0.962
222.10	 1082.167	-5567.027	 3182.034	 124.770	1921.017	173.477	     0.000	    32.025	  3552.271	     0.000	     0.000	     0.000	     0.962
223.10	 1083.766	-5566.882	 3183.085	 125.427	1917.791	175.245	     0.000	    32.025	  3552.271	     0.000	     0.000	     0.000	     0.962
224.10	 1085.363	-5566.729	 3184.132	 126.075	1914.603	177.013	     0.000	    32.025	  3552.271	     0.000	     0.000	     0.000	     0.962
225.10	 1086.959	-5566.569	 3185.173	 126.715	1911.453	178.781	     0.000	    32.025	  3552.271	     0.000	     0.000	     0.000	     0.961
226.10	 1088.554	-5566.401	 3186.211	 127.346	1908.341	180.548	     0.000	    32.025	  3552.271	     0.000	     0.000	     0.000	     0.961
227.10	 1090.147	-5566.224	 3187.243	 127.969	1905.267	182.315	     0.000	    32.025	  3552.271	     0.000	     0.000	     0.000	     0.961
228.10	 1091.738	-5566.041	 3188.271	 128.582	1902.232	184.081	     0.000	    32.025	  3552.271	     0.000	     0.000	     0.000	     0.961
229.10	 1093.328	-5565.849	 3189.294	 129.187	1899.236	185.847	     0.000	    32.025	  3552.271	     0.000	     0.000	     0.000	     0.961
230.10	 1094.916	-5565.650	 3190.313	 129.784	1896.279	187.613	     0.000	    32.025	  3552.271	     0.000	     0.000	     0.000	     0.961
231.10	 1096.503	-5565.442	 3191.327	 130.371	1893.360	189.378	     0.000	    32.025	  3552.271	     0.000	     0.000	     0.000	     0.960
232.10	 1098.088	-5565.227	 3192.337	 130.950	1890.481	191.143	     0.000	    32.025	  3552.271	     0.000	     0.000	     0.000	     0.960
233.10	 1099.672	-5565.005	 3193.342	 131.520	1887.640	192.908	     0.000	    32.025	  3552.271	     0.000	     0.000	     0.000	     0.960
234.10	 1101.254	-5564.774	 3194.342	 132.082	1884.839	194.672	     0.000	    32.025	  3552.271	     0.000	     0.000	     0.000	     0.960
235.10	 1102.835	-5564.536	 3195.338	 132.635	1882.078	196.436	     0.000	    32.025	  3552.271	     0.000	     0.000	     0.000	     0.960
236.10	 1104.414	-5564.290	 3196.329	 133.179	1879.357	198.199	     0.000	    32.025	  3552.271	     0.000	     0.000	     0.000	     0.960
237.10	 1105.991	-5564.036	 3197.315	 133.715	1876.675	199.962	     0.000	    32.025	  3552.271	     0.000	     0.000	     0.000	     0.959
238.10	 1107.567	-5563.774	 3198.297	 134.241	1874.033	201.725	     0.000	    32.025	  3552.271	     0.000	     0.000	     0.000	     0.959
239.10	 1109.141	-5563.505	 3199.274	 134.760	1871.431	203.487	     0.000	    32.025	  3552.271	     0.000	     0.000	     0.000	     0.959
240.10	 1110.714	-5563.228	 3200.247	 135.269	1868.870	205.249	     0.000	    32.025	  3552.271	     0.000	     0.000	     0.000	     0.959
241.10	 1112.285	-5562.943	 3201.215	 135.770	1866.349	207.010	     0.000	    32.025	  3552.271	     0.000	     0.000	     0.000	     0.959
242.10	 1113.855	-5562.650	 3202.178	 136.262	1863.869	208.772	     0.000	    32.025	  3552.271	     0.000	     0.000	     0.000	     0.959
243.10	 1115.423	-5562.349	 3203.137	 136.746	1861.429	210.533	     0.000	    32.025	  3552.271	     0.000	     0.000	     0.000	     0.958
244.10	 1116.990	-5562.041	 3204.091	 137.221	1859.030	212.293	     0.000	    32.025	  3552.271	     0.000	     0.000	     0.000	     0.958
245.10	 1118.555	-5561.725	 3205.041	 137.687	1856.672	214.054	     0.000	    32.025	  3552.271	     0.000	     0.000	     0.000	     0.958
246.10	 1120.118	-5561.402	 3205.986	 138.144	1854.355	215.814	     0.000	    32.025	  3552.271	     0.000	     0.000	     0.000	     0.958
247.10	 1121.680	-5561.070	 3206.926	 138.593	1852.079	217.573	     0.000	    32.025	  3552.271	     0.000	     0.000	     0.000	     0.958
248.10	 1123.241	-5560.731	 3207.862	 139.033	1849.845	219.333	     0.000	    32.025	  3552.271	     0.000	     0.000	     0.000	     0.958
249.10	 1124.799	-5560.384	 3208.793	 139.465	1847.652	221.092	     0.000	    32.025	  3552.271	     0.000	     0.000	     0.000	     0.958
250.10	 1126.357	-5560.029	 3209.719	 139.888	1845.500	222.851	     0.000	    32.025	  3552.271	     0.000	     0.000	     0.000	     0.958
251.10	 1127.912	-5559.666	 3210.641	 140.302	1843.391	224.609	     0.000	    32.025	  3552.271	     0.000	     0.000	     0.000	     0.957
252.10	 1129.466	-5559.296	 3211.558	 140.708	1841.323	226.368	     0.000	    32.025	  3552.271	     0.000	     0.000	     0.000	     0.957
253.10	 1131.019	-5558.918	 3212.471	 141.104	1839.297	228.126	     0.000	    32.025	  3552.271	     0.000	     0.000	     0.000	     0.957
254.10	 1132.570	-5558.533	 3213.379	 141.493	1837.313	229.884	     0.000	    32.025	  3552.271	     0.000	     0.000	     0.000	     0.957
255.10	 1134.119	-5558.139	 3214.282	 141.872	1835.371	231.641	     0.000	    32.025	  3552.271	     0.000	     0.000	     0.000	     0.957
256.10	 1135.667	-5557.738	 3215.181	 142.243	1833.472	233.398	     0.000	    32.025	  3552.271	     0.000	     0.000	     0.000	     0.957
257.10	 1137.213	-5557.329	 3216.075	 142.606	1831.615	235.155	     0.000	    32.025	  3552.271	     0.000	     0.000	     0.000	     0.957
258.10	 1138.758	-5556.912	 3216.964	 142.959	1829.800	236.912	     0.000	    32.025	  3552.271	     0.000	     0.000	     0.000	     0.957
259.10	 1140.301	-5556.488	 3217.849	 143.304	1828.029	238.669	     0.000	    32.025	  3552.271	     0.000	     0.000	     0.000	     0.957
260.10	 1141.843	-5556.056	 3218.729	 143.641	1826.299	240.425	     0.000	    32.025	  3552.271	     0.000	     0.000	     0.000	     0.956
261.10	 1143.383	-5555.616	 3219.605	 143.968	1824.613	242.181	     0.000	    32.025	  3552.271	     0.000	     0.000	     0.000	     0.956
262.10	 1144.921	-5555.168	 3220.476	 144.287	1822.970	243.937	     0.000	    32.025	  3552.271	     0.000	     0.000	     0.000	     0.956
263.10	 1146.458	-5554.713	 3221.342	 144.598	1821.369	245.693	     0.000	    32.025	  3552.271	     0.000	     0.000	     0.000	     0.956
264.10	 1147.993	-5554.250	 3222.204	 144.900	1819.812	247.448	     0.000	    32.025	  3552.271	     0.000	     0.000	     0.000	     0.956
265.10	 1149.527	-5553.779	 3223.061	 145.193	1818.298	249.204	     0.000	    32.025	  3552.271	     0.000	     0.000	     0.000	     0.956
266.10	 1151.059	-5553.301	 3223.913	 145.477	1816.827	250.959	     0.000	    32.025	  3552.271	     0.000	     0.000	     0.000	     0.956
267.10	 1152.589	-5552.814	 3224.761	 145.753	1815.400	252.713	     0.000	    32.025	  3552.271	     0.000	     0.000	     0.000	     0.956
268.10	 1154.118	-5552.320	 3225.604	 146.020	1814.016	254.468	     0.000	    32.025	  3552.271	     0.000	     0.000	     0.000	     0.956
269.10	 1155.646	-5551.819	 3226.443	 146.279	1812.676	256.223	     0.000	    32.025	  3552.271	     0.000	     0.000	     0.000	     0.956
270.10	 1157.171	-5551.309	 3227.277	 146.529	1811.379	257.977	     0.000	    32.025	  3552.271	     0.000	     0.000	     0.000	     0.956
271.10	 1158.696	-5550.792	 3228.106	 146.770	1810.127	259.731	     0.000	    32.025	  3552.271	     0.000	     0.000	     0.000	     0.956
272.10	 1160.218	-5550.268	 3228.931	 147.003	1808.917	261.485	     0.000	    32.025	  3552.271	     0.000	     0.000	     0.000	     0.955
273.10	 1161.739	-5549.735	 3229.751	 147.227	1807.752	263.239	     0.000	    32.025	  3552.271	     0.000	     0.000	     0.000	     0.955
274.10	 1163.259	-5549.195	 3230.566	 147.442	1806.631	264.993	     0.000	    32.025	  3552.271	     0.000	     0.000	     0.000	     0.955
275.10	 1164.777	-5548.647	 3231.377	 147.649	1805.554	266.746	     0.000	    32.025	  3552.271	     0.000	     0.000	     0.000	     0.955
276.10	 1166.293	-5548.091	 3232.183	 147.847	1804.521	268.500	     0.000	    32.025	  3552.271	     0.000	     0.000	     0.000	     0.955
277.10	 1167.808	-5547.528	 3232.985	 148.036	1803.532	270.253	     0.000	    32.025	  3552.271	     0.000	     0.000	     0.000	     0.955
278.10	 1169.321	-5546.957	 3233.782	 148.217	1802.587	272.006	     0.000	    32.025	  3552.271	     0.000	     0.000	     0.000	     0.955
279.10	 1170.832	-5546.378	 3234.574	 148.389	1801.687	273.759	     0.000	    32.025	  3552.271	     0.000	     0.000	     0.000	     0.955
280.10	 1172.342	-5545.792	 3235.361	 148.553	1800.831	275.512	     0.000	    32.025	  3552.271	     0.000	     0.000	     0.000	     0.955
281.10	 1173.851	-5545.198	 3236.144	 148.708	1800.019	277.265	     0.000	    32.025	  3552.271	     0.000	     0.000	     0.000	     0.955
282.10	 1175.357	-5544.596	 3236.923	 148.854	1799.252	279.018	     0.000	    32.025	  3552.271	     0.000	     0.000	     0.000	     0.955
283.10	 1176.863	-5543.986	 3237.696	 148.991	1798.529	280.771	     0.000	    32.025	  3552.271	     0.000	     0.000	     0.000	     0.955
284.10	 1178.366	-5543.369	 3238.465	 149.120	1797.851	282.523	     0.000	    32.025	  3552.271	     0.000	     0.000	     0.000	     0.955
285.10	 1179.868	-5542.744	 3239.230	 149.241	1797.218	284.276	     0.000	    32.025	  3552.271	     0.000	     0.000	     0.000	     0.955
286.10	 1181.369	-5542.111	 3239.990	 149.353	1796.629	286.028	     0.000	    32.025	  3552.271	     0.000	     0.000	     0.000	     0.955
287.10	 1182.867	-5541.471	 3240.745	 149.456	1796.084	287.780	     0.000	    32.025	  3552.271	     0.000	     0.000	     0.000	     0.955
288.10	 1184.365	-5540.823	 3241.495	 149.550	1795.585	289.533	     0.000	    32.025	  3552.271	     0.000	     0.000	     0.000	     0.955
289.10	 1185.860	-5540.167	 3242.241	 149.636	1795.130	291.285	     0.000	    32.025	  3552.271	     0.000	     0.000	     0.000	     0.955
290.10	 1187.354	-5539.504	 3242.982	 149.713	1794.720	293.037	     0.000	    32.025	  3552.271	     0.000	     0.000	     0.000	     0.955
291.10	 1188.847	-5538.833	 3243.719	 149.782	1794.355	294.789	     0.000	    32.025	  3552.271	     0.000	     0.000	     0.000	     0.955
292.10	 1190.338	-5538.154	 3244.451	 149.842	1794.034	296.541	     0.000	    32.025	  3552.271	     0.000	     0.000	     0.000	     0.955
293.10	 1191.827	-5537.467	 3245.178	 149.893	1793.758	298.293	     0.000	    32.025	  3552.271	     0.000	     0.000	     0.000	     0.955
294.10	 1193.314	-5536.773	 3245.901	 149.936	1793.528	300.045	     0.000	    32.025	  3552.271	     0.000	     0.000	     0.000	     0.955
295.10	 1194.801	-5536.071	 3246.618	 149.970	1793.342	301.797	     0.000	    32.025	  3552.271	     0.000	     0.000	     0.000	     0.955
296.10	 1196.285	-5535.362	 3247.332	 149.995	1793.201	303.548	     0.000	    32.025	  3552.271	     0.000	     0.000	     0.000	     0.955
297.10	 1197.768	-5534.645	 3248.040	 150.012	1793.105	305.300	     0.000	    32.025	  3552.271	     0.000	     0.000	     0.000	     0.955
298.10	 1199.249	-5533.920	 3248.744	 150.020	1793.053	307.052	     0.000	    32.025	  3552.271	     0.000	     0.000	     0.000	     0.955
299.00	 1200.581	-5533.261	 3249.374	 150.020	1793.046	308.629	     0.000	    32.025	  3552.271	     0.000	     0.000	     0.000	     0.955
300.00	 1202.059	-5532.521	 3250.069	 150.012	1793.080	310.381	     0.000	    32.025	  3552.271	     0.000	     0.000	     0.000	     0.955
301.00	 1203.535	-5531.774	 3250.760	 149.995	1793.159	312.132	     0.000	    32.025	  3552.271	     0.000	     0.000	     0.000	     0.955
302.00	 1205.010	-5531.019	 3251.445	 149.969	1793.282	313.884	     0.000	    32.025	  3552.271	     0.000	     0.000	     0.000	     0.955
303.00	 1206.484	-5530.257	 3252.127	 149.935	1793.451	315.636	     0.000	    32.025	  3552.271	     0.000	     0.000	     0.000	     0.955
304.00	 1207.955	-5529.486	 3252.803	 149.892	1793.665	317.388	     0.000	    32.025	  3552.271	     0.000	     0.000	     0.000	     0.955
305.00	 1209.426	-5528.708	 3253.475	 149.841	1793.923	319.140	     0.000	    32.025	  3552.271	     0.000	     0.000	     0.000	     0.955
306.00	 1210.894	-5527.923	 3254.142	 149.781	1794.226	320.892	     0.000	    32.025	  3552.271	     0.000	     0.000	     0.000	     0.955
307.00	 1212.361	-5527.130	 3254.805	 149.712	1794.575	322.644	     0.000	    32.025	  3552.271	     0.000	     0.000	     0.000	     0.955
308.00	 1213.826	-5526.329	 3255.463	 149.635	1794.967	324.396	     0.000	    32.025	  3552.271	     0.000	     0.000	     0.000	     0.955
309.00	 1215.290	-5525.520	 3256.116	 149.549	1795.405	326.148	     0.000	    32.025	  3552.271	     0.000	     0.000	     0.000	     0.955
310.00	 1216.752	-5524.704	 3256.764	 149.454	1795.888	327.900	     0.000	    32.025	  3552.271	     0.000	     0.000	     0.000	     0.955
311.00	 1218.212	-5523.880	 3257.408	 149.351	1796.415	329.652	     0.000	    32.025	  3552.271	     0.000	     0.000	     0.000	     0.955
312.00	 1219.671	-5523.048	 3258.047	 149.239	1796.987	331.404	     0.000	    32.025	  3552.271	     0.000	     0.000	     0.000	     0.955
313.00	 1221.128	-5522.209	 3258.682	 149.119	1797.603	333.156	     0.000	    32.025	  3552.271	     0.000	     0.000	     0.000	     0.955
314.00	 1222.584	-5521.362	 3259.312	 148.989	1798.264	334.909	     0.000	    32.025	  3552.271	     0.000	     0.000	     0.000	     0.955
315.00	 1224.038	-5520.507	 3259.937	 148.852	1798.970	336.661	     0.000	    32.025	  3552.271	     0.000	     0.000	     0.000	     0.955
316.00	 1225.490	-5519.645	 3260.557	 148.705	1799.720	338.413	     0.000	    32.025	  3552.271	     0.000	     0.000	     0.000	     0.955
317.00	 1226.941	-5518.775	 3261.173	 148.550	1800.515	340.166	     0.000	    32.025	  3552.271	     0.000	     0.000	     0.000	     0.955
318.00	 1228.390	-5517.897	 3261.784	 148.387	1801.354	341.919	     0.000	    32.025	  3552.271	     0.000	     0.000	     0.000	     0.955
319.00	 1229.837	-5517.012	 3262.391	 148.214	1802.237	343.672	     0.000	    32.025	  3552.271	     0.000	     0.000	     0.000	     0.955
320.00	 1231.283	-5516.119	 3262.993	 148.033	1803.165	345.424	     0.000	    32.025	  3552.271	     0.000	     0.000	     0.000	     0.955
321.00	 1232.727	-5515.218	 3263.590	 147.844	1804.137	347.177	     0.000	    32.025	  3552.271	     0.000	     0.000	     0.000	     0.955
322.00	 1234.170	-5514.310	 3264.182	 147.646	1805.153	348.931	     0.000	    32.025	  3552.271	     0.000	     0.000	     0.000	     0.955
323.00	 1235.611	-5513.394	 3264.770	 147.439	1806.213	350.684	     0.000	    32.025	  3552.271	     0.000	     0.000	     0.000	     0.955
324.00	 1237.050	-5512.470	 3265.353	 147.223	1807.318	352.437	     0.000	    32.025	  3552.271	     0.000	     0.000	     0.000	     0.955
325.00	 1238.488	-5511.539	 3265.932	 146.999	1808.466	354.191	     0.000	    32.025	  3552.271	     0.000	     0.000	     0.000	     0.955
326.00	 1239.924	-5510.600	 3266.505	 146.766	1809.658	355.944	     0.000	    32.025	  3552.271	     0.000	     0.000	     0.000	     0.956
327.00	 1241.358	-5509.653	 3267.074	 146.525	1810.895	357.698	     0.000	    32.025	  3552.271	     0.000	     0.000	     0.000	     0.956
328.00	 1242.791	-5508.699	 3267.639	 146.275	1812.175	359.452	     0.000	    32.025	  3552.271	     0.000	     0.000	     0.000	     0.956
329.00	 1244.222	-5507.736	 3268.198	 146.016	1813.498	361.206	     0.000	    32.025	  3552.271	     0.000	     0.000	     0.000	     0.956
330.00	 1245.652	-5506.767	 3268.753	 145.749	1814.865	362.960	     0.000	    32.025	  3552.271	     0.000	     0.000	     0.000	     0.956
331.00	 1247.079	-5505.789	 3269.304	 145.473	1816.276	364.715	     0.000	    32.025	  3552.271	     0.000	     0.000	     0.000	     0.956
332.00	 1248.506	-5504.804	 3269.849	 145.188	1817.730	366.469	     0.000	    32.025	  3552.271	     0.000	     0.000	     0.000	     0.956
333.00	 1249.930	-5503.812	 3270.390	 144.895	1819.228	368.224	     0.000	    32.025	  3552.271	     0.000	     0.000	     0.000	     0.956
334.00	 1251.353	-5502.811	 3270.926	 144.593	1820.769	369.979	     0.000	    32.025	  3552.271	     0.000	     0.000	     0.000	     0.956
335.00	 1252.774	-5501.803	 3271.458	 144.283	1822.353	371.734	     0.000	    32.025	  3552.271	     0.000	     0.000	     0.000	     0.956
336.00	 1254.194	-5500.788	 3271.984	 143.963	1823.980	373.490	     0.000	    32.025	  3552.271	     0.000	     0.000	     0.000	     0.956
337.00	 1255.612	-5499.764	 3272.507	 143.636	1825.650	375.245	     0.000	    32.025	  3552.271	     0.000	     0.000	     0.000	     0.956
338.00	 1257.028	-5498.733	 3273.024	 143.299	1827.363	377.001	     0.000	    32.025	  3552.271	     0.000	     0.000	     0.000	     0.957
339.00	 1258.443	-5497.694	 3273.537	 142.954	1829.118	378.757	     0.000	    32.025	  3552.271	     0.000	     0.000	     0.000	     0.957
340.00	 1259.856	-5496.648	 3274.045	 142.600	1830.917	380.513	     0.000	    32.025	  3552.271	     0.000	     0.000	     0.000	     0.957
341.00	 1261.267	-5495.594	 3274.548	 142.238	1832.758	382.270	     0.000	    32.025	  3552.271	     0.000	     0.000	     0.000	     0.957
342.00	 1262.677	-5494.532	 3275.046	 141.867	1834.641	384.026	     0.000	    32.025	  3552.271	     0.000	     0.000	     0.000	     0.957
343.00	 1264.085	-5493.463	 3275.540	 141.487	1836.567	385.783	     0.000	    32.025	  3552.271	     0.000	     0.000	     0.000	     0.957
344.00	 1265.492	-5492.386	 3276.029	 141.098	1838.535	387.541	     0.000	    32.025	  3552.271	     0.000	     0.000	     0.000	     0.957
345.00	 1266.896	-5491.301	 3276.514	 140.701	1840.545	389.298	     0.000	    32.025	  3552.271	     0.000	     0.000	     0.000	     0.957
346.00	 1268.299	-5490.209	 3276.994	 140.296	1842.597	391.056	     0.000	    32.025	  3552.271	     0.000	     0.000	     0.000	     0.957
347.00	 1269.701	-5489.109	 3277.469	 139.881	1844.691	392.813	     0.000	    32.025	  3552.271	     0.000	     0.000	     0.000	     0.958
348.00	 1271.101	-5488.001	 3277.939	 139.458	1846.826	394.572	     0.000	    32.025	  3552.271	     0.000	     0.000	     0.000	     0.958
349.00	 1272.499	-5486.886	 3278.404	 139.027	1849.004	396.330	     0.000	    32.025	  3552.271	     0.000	     0.000	     0.000	     0.958
350.00	 1273.895	-5485.762	 3278.865	 138.586	1851.222	398.089	     0.000	    32.025	  3552.271	     0.000	     0.000	     0.000	     0.958
351.00	 1275.290	-5484.632	 3279.321	 138.137	1853.483	399.848	     0.000	    32.025	  3552.271	     0.000	     0.000	     0.000	     0.958
352.00	 1276.683	-5483.493	 3279.773	 137.680	1855.784	401.607	     0.000	    32.025	  3552.271	     0.000	     0.000	     0.000	     0.958
353.00	 1278.075	-5482.347	 3280.220	 137.213	1858.127	403.367	     0.000	    32.025	  3552.271	     0.000	     0.000	     0.000	     0.958
354.00	 1279.464	-5481.194	 3280.661	 136.738	1860.510	405.127	     0.000	    32.025	  3552.271	     0.000	     0.000	     0.000	     0.958
355.00	 1280.853	-5480.032	 3281.099	 136.255	1862.935	406.887	     0.000	    32.025	  3552.271	     0.000	     0.000	     0.000	     0.959
356.00	 1282.239	-5478.863	 3281.531	 135.762	1865.400	408.647	     0.000	    32.025	  3552.271	     0.000	     0.000	     0.000	     0.959
357.00	 1283.624	-5477.686	 3281.959	 135.261	1867.906	410.408	     0.000	    32.025	  3552.271	     0.000	     0.000	     0.000	     0.959
358.00	 1285.007	-5476.502	 3282.382	 134.752	1870.452	412.169	     0.000	    32.025	  3552.271	     0.000	     0.000	     0.000	     0.959
359.00	 1286.388	-5475.310	 3282.800	 134.233	1873.039	413.931	     0.000	    32.025	  3552.271	     0.000	     0.000	     0.000	     0.959
360.00	 1287.768	-5474.110	 3283.214	 133.706	1875.665	415.692	     0.000	    32.025	  3552.271	     0.000	     0.000	     0.000	     0.959
361.00	 1289.146	-5472.903	 3283.623	 133.171	1878.332	417.455	     0.000	    32.025	  3552.271	     0.000	     0.000	     0.000	     0.959
362.00	 1290.523	-5471.688	 3284.027	 132.626	1881.039	419.217	     0.000	    32.025	  3552.271	     0.000	     0.000	     0.000	     0.960
363.00	 1291.897	-5470.465	 3284.426	 132.073	1883.785	420.980	     0.000	    32.025	  3552.271	     0.000	     0.000	     0.000	     0.960
364.00	 1293.270	-5469.234	 3284.821	 131.512	1886.571	422.743	     0.000	    32.025	  3552.271	     0.000	     0.000	     0.000	     0.960
365.00	 1294.642	-5467.996	 3285.210	 130.941	1889.397	424.507	     0.000	    32.025	  3552.271	     0.000	     0.000	     0.000	     0.960
366.00	 1296.011	-5466.750	 3285.595	 130.362	1892.262	426.271	     0.000	    32.025	  3552.271	     0.000	     0.000	     0.000	     0.960
367.00	 1297.379	-5465.497	 3285.976	 129.775	1895.166	428.035	     0.000	    32.025	  3552.271	     0.000	     0.000	     0.000	     0.960
368.00	 1298.746	-5464.236	 3286.351	 129.178	1898.109	429.799	     0.000	    32.025	  3552.271	     0.000	     0.000	     0.000	     0.961
369.00	 1300.110	-5462.967	 3286.722	 128.573	1901.091	431.565	     0.000	    32.025	  3552.271	     0.000	     0.000	     0.000	     0.961
370.00	 1301.473	-5461.691	 3287.088	 127.959	1904.112	433.330	     0.000	    32.025	  3552.271	     0.000	     0.000	     0.000	     0.961
371.00	 1302.834	-5460.406	 3287.450	 127.337	1907.171	435.096	     0.000	    32.025	  3552.271	     0.000	     0.000	     0.000	     0.961
372.00	 1304.194	-5459.115	 3287.806	 126.706	1910.269	436.862	     0.000	    32.025	  3552.271	     0.000	     0.000	     0.000	     0.961
373.00	 1305.552	-5457.815	 3288.158	 126.066	1913.405	438.629	     0.000	    32.025	  3552.271	     0.000	     0.000	     0.000	     0.962
374.00	 1306.908	-5456.508	 3288.505	 125.417	1916.579	440.396	     0.000	    32.025	  3552.271	     0.000	     0.000	     0.000	     0.962
375.00	 1308.262	-5455.193	 3288.847	 124.760	1919.791	442.163	     0.000	    32.025	  3552.271	     0.000	     0.000	     0.000	     0.962
376.00	 1309.615	-5453.870	 3289.185	 124.094	1923.041	443.931	     0.000	    32.025	  3552.271	     0.000	     0.000	     0.000	     0.962
377.00	 1310.966	-5452.540	 3289.518	 123.419	1926.328	445.699	     0.000	    32.025	  3552.271	     0.000	     0.000	     0.000	     0.962
378.00	 1312.316	-5451.202	 3289.846	 122.736	1929.653	447.468	     0.000	    32.025	  3552.271	     0.000	     0.000	     0.000	     0.963
379.00	 1313.663	-5449.857	 3290.169	 122.044	1933.015	449.237	     0.000	    32.025	  3552.271	     0.000	     0.000	     0.000	     0.963
380.00	 1315.009	-5448.503	 3290.487	 121.343	1936.415	451.007	     0.000	    32.025	  3552.271	     0.000	     0.000	     0.000	     0.963
381.00	 1316.348	-5447.148	 3290.800	 120.636	1927.122	452.771	     0.000	    31.790	  3564.997	     0.000	     0.000	     1.000	     1.304
382.00	 1317.677	-5445.793	 3291.105	 119.925	1917.814	454.523	     0.000	    31.555	  3577.777	     0.000	     0.000	     1.000	     1.305
383.00	 1318.994	-5444.440	 3291.404	 119.210	1908.488	456.265	     0.000	    31.320	  3590.610	     0.000	     0.000	     1.000	     1.305
384.00	 1320.302	-5443.089	 3291.696	 118.492	1899.146	457.995	     0.000	    31.085	  3603.498	     0.000	     0.000	     1.000	     1.305
385.00	 1321.598	-5441.739	 3291.981	 117.769	1889.786	459.714	     0.000	    30.850	  3616.441	     0.000	     0.000	     1.000	     1.306
386.00	 1322.885	-5440.390	 3292.260	 117.043	1880.409	461.421	     0.000	    30.615	  3629.439	     0.000	     0.000	     1.000	     1.306
387.00	 1324.160	-5439.043	 3292.531	 116.312	1871.014	463.117	     0.000	    30.380	  3642.492	     0.000	     0.000	     1.000	     1.306
388.00	 1325.425	-5437.698	 3292.797	 115.579	1861.600	464.802	     0.000	    30.145	  3655.602	     0.000	     0.000	     1.000	     1.307
389.00	 1326.679	-5436.355	 3293.055	 114.841	1852.168	466.475	     0.000	    29.910	  3668.768	     0.000	     0.000	     1.000	     1.307
390.00	 1327.923	-5435.013	 3293.307	 114.100	1842.716	468.137	     0.000	    29.675	  3681.991	     0.000	     0.000	     1.000	     1.308
391.00	 1329.156	-5433.674	 3293.552	 113.356	1833.245	469.788	     0.000	    29.440	  3695.273	     0.000	     0.000	     1.000	     1.308
392.00	 1330.378	-5432.336	 3293.791	 112.608	1823.754	471.427	     0.000	    29.205	  3708.612	     0.000	     0.000	     1.000	     1.309
393.00	 1331.590	-5431.001	 3294.023	 111.857	1814.243	473.054	     0.000	    28.970	  3722.010	     0.000	     0.000	     1.000	     1.309
394.00	 1332.791	-5429.668	 3294.249	 111.103	1804.711	474.670	     0.000	    28.735	  3735.467	     0.000	     0.000	     1.000	     1.310
395.00	 1333.981	-5428.337	 3294.468	 110.345	1795.158	476.274	     0.000	    28.500	  3748.983	     0.000	     0.000	     1.000	     1.310
396.00	 1335.161	-5427.008	 3294.681	 109.585	1785.583	477.867	     0.000	    28.266	  3762.560	     0.000	     0.000	     1.000	     1.311
397.00	 1336.329	-5425.682	 3294.887	 108.821	1775.986	479.448	     0.000	    28.031	  3776.198	     0.000	     0.000	     1.000	     1.311
398.00	 1337.488	-5424.358	 3295.087	 108.054	1766.366	481.017	     0.000	    27.796	  3789.897	     0.000	     0.000	     1.000	     1.312
399.00	 1338.635	-5423.037	 3295.281	 107.285	1756.724	482.575	     0.000	    27.561	  3803.658	     0.000	     0.000	     1.000	     1.313
400.00	 1339.772	-5421.718	 3295.468	 106.512	1747.058	484.121	     0.000	    27.326	  3817.481	     0.000	     0.000	     1.000	     1.313
401.00	 1340.898	-5420.403	 3295.649	 105.737	1737.368	485.655	     0.000	    27.091	  3831.368	     0.000	     0.000	     1.000	     1.314
402.00	 1342.013	-5419.090	 3295.824	 104.959	1727.654	487.177	     0.000	    26.856	  3845.318	     0.000	     0.000	     1.000	     1.315
403.00	 1343.117	-5417.779	 3295.993	 104.179	1717.916	488.688	     0.000	    26.621	  3859.332	     0.000	     0.000	     1.000	     1.316
404.00	 1344.211	-5416.472	 3296.155	 103.396	1708.151	490.186	     0.000	    26.386	  3873.410	     0.000	     0.000	     1.000	     1.316
405.00	 1345.294	-5415.168	 3296.312	 102.610	1698.361	491.673	     0.000	    26.151	  3887.555	     0.000	     0.000	     1.000	     1.317
406.00	 1346.366	-5413.867	 3296.462	 101.822	1688.545	493.148	     0.000	    25.916	  3901.765	     0.000	     0.000	     1.000	     1.318
407.00	 1347.427	-5412.569	 3296.606	 101.032	1678.702	494.610	     0.000	    25.681	  3916.042	     0.000	     0.000	     1.000	     1.319
408.00	 1348.478	-5411.275	 3296.744	 100.240	1668.831	496.061	     0.000	    25.446	  3930.385	     0.000	     0.000	     1.000	     1.320
409.00	 1349.517	-5409.984	 3296.876	  99.445	1658.933	497.500	     0.000	    25.211	  3944.797	     0.000	     0.000	     1.000	     1.321
410.00	 1350.546	-5408.696	 3297.002	  98.649	1649.006	498.927	     0.000	    24.976	  3959.278	     0.000	     0.000	     1.000	     1.322
411.00	 1351.564	-5407.412	 3297.122	  97.850	1639.049	500.341	     0.000	    24.741	  3973.827	     0.000	     0.000	     1.000	     1.323
412.00	 1352.572	-5406.132	 3297.236	  97.050	1629.064	501.744	     0.000	    24.506	  3988.446	     0.000	     0.000	     1.000	     1.324
413.00	 1353.568	-5404.856	 3297.345	  96.248	1619.048	503.134	     0.000	    24.271	  4003.136	     0.000	     0.000	     1.000	     1.325
414.00	 1354.554	-5403.583	 3297.448	  95.444	1609.001	504.512	     0.000	    24.036	  4017.897	     0.000	     0.000	     1.000	     1.326
415.00	 1355.529	-5402.314	 3297.544	  94.638	1598.923	505.878	     0.000	    23.801	  4032.729	     0.000	     0.000	     1.000	     1.327
416.00	 1356.493	-5401.049	 3297.636	  93.831	1588.812	507.232	     0.000	    23.566	  4047.635	     0.000	     0.000	     1.000	     1.328
417.00	 1357.446	-5399.789	 3297.721	  93.023	1578.669	508.573	     0.000	    23.331	  4062.613	     0.000	     0.000	     1.000	     1.330
418.00	 1358.388	-5398.532	 3297.801	  92.213	1568.493	509.903	     0.000	    23.096	  4077.666	     0.000	     0.000	     1.000	     1.331
419.00	 1359.320	-5397.280	 3297.875	  91.402	1558.283	511.219	     0.000	    22.861	  4092.793	     0.000	     0.000	     1.000	     1.332
420.00	 1360.240	-5396.032	 3297.944	  90.590	1548.038	512.524	     0.000	    22.626	  4107.996	     0.000	     0.000	     1.000	     1.334
421.00	 1361.150	-5394.789	 3298.007	  89.776	1537.758	513.816	     0.000	    22.391	  4123.275	     0.000	     0.000	     1.000	     1.335
422.00	 1362.049	-5393.551	 3298.065	  88.962	1527.442	515.096	     0.000	    22.156	  4138.631	     0.000	     0.000	     1.000	     1.336
423.00	 1362.937	-5392.317	 3298.117	  88.147	1517.089	516.363	     0.000	    21.921	  4154.065	     0.000	     0.000	     1.000	     1.338
424.00	 1363.814	-5391.087	 3298.164	  87.331	1506.699	517.618	     0.000	    21.686	  4169.577	     0.000	     0.000	     1.000	     1.339
425.00	 1364.681	-5389.863	 3298.205	  86.514	1496.271	518.860	     0.000	    21.451	  4185.169	     0.000	     0.000	     1.000	     1.341
426.00	 1365.536	-5388.644	 3298.242	  85.697	1485.804	520.090	     0.000	    21.216	  4200.841	     0.000	     0.000	     1.000	     1.343
427.00	 1366.381	-5387.430	 3298.273	  84.879	1475.297	521.307	     0.000	    20.981	  4216.594	     0.000	     0.000	     1.000	     1.344
428.00	 1367.215	-5386.221	 3298.299	  84.061	1464.750	522.511	     0.000	    20.746	  4232.429	     0.000	     0.000	     1.000	     1.346
429.00	 1368.038	-5385.017	 3298.319	  83.242	1454.161	523.703	     0.000	    20.511	  4248.346	     0.000	     0.000	     1.000	     1.348
430.00	 1368.851	-5383.818	 3298.335	  82.424	1443.531	524.883	     0.000	    20.276	  4264.347	     0.000	     0.000	     1.000	     1.350
431.00	 1369.657	-5382.618	 3298.346	  81.600	1448.948	526.057	     0.000	    20.276	  4264.347	     0.000	     0.000	     0.000	     0.975
432.00	 1370.462	-5381.409	 3298.352	  80.767	1454.406	527.231	     0.000	    20.276	  4264.347	     0.000	     0.000	     0.000	     0.975
433.00	 1371.266	-5380.192	 3298.353	  79.925	1459.904	528.406	     0.000	    20.276	  4264.347	     0.000	     0.000	     0.000	     0.975
434.00	 1372.067	-5378.968	 3298.349	  79.074	1465.444	529.581	     0.000	    20.276	  4264.347	     0.000	     0.000	     0.000	     0.976
435.00	 1372.866	-5377.736	 3298.340	  78.213	1471.023	530.756	     0.000	    20.276	  4264.347	     0.000	     0.000	     0.000	     0.976
436.00	 1373.664	-5376.496	 3298.327	  77.344	1476.642	531.932	     0.000	    20.276	  4264.347	     0.000	     0.000	     0.000	     0.976
437.00	 1374.460	-5375.248	 3298.308	  76.465	1482.301	533.108	     0.000	    20.276	  4264.347	     0.000	     0.000	     0.000	     0.976
438.00	 1375.254	-5373.993	 3298.285	  75.577	1487.998	534.285	     0.000	    20.276	  4264.347	     0.000	     0.000	     0.000	     0.977
439.00	 1376.046	-5372.729	 3298.256	  74.680	1493.734	535.462	     0.000	    20.276	  4264.347	     0.000	     0.000	     0.000	     0.977
440.00	 1376.836	-5371.458	 3298.223	  73.774	1499.508	536.639	     0.000	    20.276	  4264.347	     0.000	     0.000	     0.000	     0.977
441.00	 1377.624	-5370.179	 3298.185	  72.858	1505.320	537.817	     0.000	    20.276	  4264.347	     0.000	     0.000	     0.000	     0.978
442.00	 1378.411	-5368.892	 3298.142	  71.933	1511.170	538.996	     0.000	    20.276	  4264.347	     0.000	     0.000	     0.000	     0.978
443.00	 1379.195	-5367.597	 3298.094	  70.999	1517.056	540.174	     0.000	    20.276	  4264.347	     0.000	     0.000	     0.000	     0.978
444.00	 1379.978	-5366.295	 3298.041	  70.056	1522.980	541.354	     0.000	    20.276	  4264.347	     0.000	     0.000	     0.000	     0.978
445.00	 1380.759	-5364.984	 3297.984	  69.104	1528.939	542.533	     0.000	    20.276	  4264.347	     0.000	     0.000	     0.000	     0.979
446.00	 1381.538	-5363.666	 3297.921	  68.142	1534.935	543.713	     0.000	    20.276	  4264.347	     0.000	     0.000	     0.000	     0.979
447.00	 1382.315	-5362.340	 3297.854	  67.172	1540.966	544.894	     0.000	    20.276	  4264.347	     0.000	     0.000	     0.000	     0.979
448.00	 1383.091	-5361.006	 3297.781	  66.192	1547.033	546.075	     0.000	    20.276	  4264.347	     0.000	     0.000	     0.000	     0.980
449.00	 1383.864	-5359.664	 3297.704	  65.202	1553.134	547.256	     0.000	    20.276	  4264.347	     0.000	     0.000	     0.000	     0.980
450.00	 1384.636	-5358.315	 3297.622	  64.204	1559.270	548.438	     0.000	    20.276	  4264.347	     0.000	     0.000	     0.000	     0.980
451.00	 1385.401	-5356.965	 3297.535	  63.202	1550.230	549.615	     0.000	    20.054	  4279.555	     0.000	     0.000	     0.946	     1.188
452.00	 1386.157	-5355.621	 3297.444	  62.200	1541.147	550.780	     0.000	    19.832	  4294.838	     0.000	     0.000	     0.946	     1.190
453.00	 1386.904	-5354.283	 3297.349	  61.199	1532.022	551.934	     0.000	    19.609	  4310.199	     0.000	     0.000	     0.946	     1.192
454.00	 1387.641	-5352.950	 3297.251	  60.199	1522.853	553.076	     0.000	    19.387	  4325.637	     0.000	     0.000	     0.946	     1.193
455.00	 1388.369	-5351.622	 3297.148	  59.200	1513.639	554.208	     0.000	    19.165	  4341.154	     0.000	     0.000	     0.946	     1.195
456.00	 1389.088	-5350.301	 3297.042	  58.202	1504.381	555.329	     0.000	    18.943	  4356.751	     0.000	     0.000	     0.946	     1.197
457.00	 1389.797	-5348.985	 3296.932	  57.205	1495.076	556.438	     0.000	    18.721	  4372.428	     0.000	     0.000	     0.946	     1.200
458.00	 1390.497	-5347.675	 3296.818	  56.209	1485.724	557.537	     0.000	    18.498	  4388.186	     0.000	     0.000	     0.946	     1.202
459.00	 1391.188	-5346.371	 3296.700	  55.214	1476.325	558.624	     0.000	    18.276	  4404.025	     0.000	     0.000	     0.946	     1.204
460.00	 1391.869	-5345.074	 3296.579	  54.221	1466.877	559.700	     0.000	    18.054	  4419.948	     0.000	     0.000	     0.946	     1.206
461.00	 1392.541	-5343.782	 3296.454	  53.230	1457.380	560.764	     0.000	    17.832	  4435.954	     0.000	     0.000	     0.946	     1.209
462.00	 1393.204	-5342.497	 3296.325	  52.240	1447.832	561.818	     0.000	    17.610	  4452.045	     0.000	     0.000	     0.946	     1.211
463.00	 1393.858	-5341.219	 3296.193	  51.251	1438.233	562.860	     0.000	    17.388	  4468.221	     0.000	     0.000	     0.946	     1.214
464.00	 1394.502	-5339.947	 3296.058	  50.265	1428.582	563.891	     0.000	    17.165	  4484.483	     0.000	     0.000	     0.946	     1.216
465.00	 1395.138	-5338.681	 3295.919	  49.280	1418.878	564.910	     0.000	    16.943	  4500.833	     0.000	     0.000	     0.946	     1.219
466.00	 1395.764	-5337.422	 3295.777	  48.298	1409.119	565.919	     0.000	    16.721	  4517.271	     0.000	     0.000	     0.946	     1.222
467.00	 1396.380	-5336.170	 3295.632	  47.317	1399.305	566.916	     0.000	    16.499	  4533.798	     0.000	     0.000	     0.946	     1.225
468.00	 1396.988	-5334.925	 3295.483	  46.339	1389.436	567.901	     0.000	    16.277	  4550.415	     0.000	     0.000	     0.946	     1.228
469.00	 1397.587	-5333.687	 3295.331	  45.363	1379.509	568.876	     0.000	    16.054	  4567.124	     0.000	     0.000	     0.946	     1.231
470.00	 1398.176	-5332.456	 3295.177	  44.390	1369.524	569.838	     0.000	    15.832	  4583.924	     0.000	     0.000	     0.946	     1.234
471.00	 1398.756	-5331.232	 3295.019	  43.419	1359.479	570.790	     0.000	    15.610	  4600.818	     0.000	     0.000	     0.946	     1.237
472.00	 1399.327	-5330.016	 3294.858	  42.451	1349.375	571.730	     0.000	    15.388	  4617.806	     0.000	     0.000	     0.946	     1.241
473.00	 1399.889	-5328.807	 3294.694	  41.486	1339.209	572.659	     0.000	    15.166	  4634.889	     0.000	     0.000	     0.946	     1.244
474.00	 1400.442	-5327.606	 3294.528	  40.523	1328.981	573.576	     0.000	    14.944	  4652.068	     0.000	     0.000	     0.946	     1.248
475.00	 1400.986	-5326.412	 3294.358	  39.564	1318.689	574.481	     0.000	    14.721	  4669.345	     0.000	     0.000	     0.946	     1.252
476.00	 1401.521	-5325.226	 3294.186	  38.608	1308.332	575.376	     0.000	    14.499	  4686.720	     0.000	     0.000	     0.946	     1.255
477.00	 1402.047	-5324.047	 3294.011	  37.655	1297.909	576.259	     0.000	    14.277	  4704.195	     0.000	     0.000	     0.946	     1.259
478.00	 1402.564	-5322.877	 3293.834	  36.706	1287.420	577.130	     0.000	    14.055	  4721.771	     0.000	     0.000	     0.946	     1.264
479.00	 1403.072	-5321.715	 3293.654	  35.760	1276.862	577.990	     0.000	    13.833	  4739.449	     0.000	     0.000	     0.946	     1.268
480.00	 1403.571	-5320.561	 3293.472	  34.818	1266.234	578.838	     0.000	    13.610	  4757.229	     0.000	     0.000	     0.946	     1.272
481.00	 1404.061	-5319.415	 3293.287	  33.879	1255.536	579.674	     0.000	    13.388	  4775.115	     0.000	     0.000	     0.946	     1.276
482.00	 1404.542	-5318.277	 3293.100	  32.945	1244.766	580.500	     0.000	    13.166	  4793.106	     0.000	     0.000	     0.946	     1.281
483.00	 1405.014	-5317.148	 3292.911	  32.014	1233.922	581.313	     0.000	    12.944	  4811.203	     0.000	     0.000	     0.946	     1.286
484.00	 1405.477	-5316.028	 3292.719	  31.088	1223.004	582.115	     0.000	    12.722	  4829.409	     0.000	     0.000	     0.946	     1.291
485.00	 1405.932	-5314.917	 3292.526	  30.166	1212.010	582.906	     0.000	    12.500	  4847.725	     0.000	     0.000	     0.946	     1.296
486.00	 1406.378	-5313.814	 3292.330	  29.249	1200.938	583.685	     0.000	    12.277	  4866.151	     0.000	     0.000	     0.946	     1.301
487.00	 1406.815	-5312.720	 3292.133	  28.336	1189.788	584.452	     0.000	    12.055	  4884.689	     0.000	     0.000	     0.946	     1.306
488.00	 1407.243	-5311.635	 3291.933	  27.428	1178.558	585.208	     0.000	    11.833	  4903.340	     0.000	     0.000	     0.946	     1.312
489.00	 1407.662	-5310.560	 3291.732	  26.524	1167.246	585.952	     0.000	    11.611	  4922.107	     0.000	     0.000	     0.946	     1.317
490.00	 1408.073	-5309.494	 3291.529	  25.626	1155.851	586.684	     0.000	    11.389	  4940.990	     0.000	     0.000	     0.946	     1.323
491.00	 1408.475	-5308.437	 3291.324	  24.733	1144.037	587.405	    26.304	    11.166	  4959.977	     0.000	     0.000	     0.946	     1.483
492.00	 1408.869	-5307.392	 3291.118	  23.847	1130.641	588.113	    29.738	    10.944	  4979.047	     0.000	     0.000	     0.946	     1.514
493.00	 1409.252	-5306.357	 3290.911	  22.967	1116.866	588.809	    33.550	    10.722	  4998.229	     0.000	     0.000	     0.946	     1.550
494.00	 1409.627	-5305.335	 3290.703	  22.095	1102.665	589.491	    37.767	    10.500	  5017.526	     0.000	     0.000	     0.946	     1.591
495.00	 1409.992	-5304.325	 3290.494	  21.230	1087.986	590.160	    42.410	    10.278	  5036.935	     0.000	     0.000	     0.946	     1.637
496.00	 1410.347	-5303.328	 3290.285	  20.374	1072.771	590.816	    47.497	    10.056	  5056.459	     0.000	     0.000	     0.946	     1.689
497.00	 1410.693	-5302.345	 3290.075	  19.527	1056.957	591.457	    52.875	     9.833	  5076.096	     0.000	     0.000	     0.946	     1.747
498.00	 1411.029	-5301.376	 3289.864	  18.689	1040.497	592.085	    58.462	     9.611	  5095.847	     0.000	     0.000	     0.946	     1.810
499.00	 1411.356	-5300.422	 3289.654	  17.862	1023.322	592.698	    64.417	     9.389	  5115.711	     0.000	     0.000	     0.946	     1.881
500.00	 1411.672	-5299.483	 3289.444	  17.045	1005.356	593.297	    70.710	     9.167	  5135.688	     0.000	     0.000	     0.946	     1.960
501.00	 1411.978	-5298.561	 3289.235	  16.240	 986.517	593.880	    77.292	     8.945	  5155.776	     0.000	     0.000	     0.946	     2.048
502.00	 1412.274	-5297.656	 3289.026	  15.447	 966.721	594.447	    84.097	     8.722	  5175.976	     0.000	     0.000	     0.946	     2.144
503.00	 1412.559	-5296.769	 3288.818	  14.668	 945.884	594.999	    91.037	     8.500	  5196.285	     0.000	     0.000	     0.946	     2.249
504.00	 1412.833	-5295.901	 3288.612	  13.903	 923.922	595.533	    97.998	     8.278	  5216.702	     0.000	     0.000	     0.946	     2.363
505.00	 1413.097	-5295.055	 3288.408	  13.154	 900.758	596.051	   104.843	     8.056	  5237.226	     0.000	     0.000	     0.946	     2.484
506.00	 1413.349	-5294.230	 3288.205	  12.421	 876.325	596.550	   111.409	     7.834	  5257.855	     0.000	     0.000	     0.946	     2.612
507.00	 1413.590	-5293.427	 3288.006	  11.706	 850.573	597.031	   117.515	     7.612	  5278.586	     0.000	     0.000	     0.946	     2.745
508.00	 1413.819	-5292.649	 3287.809	  11.010	 823.475	597.493	   122.964	     7.389	  5299.418	     0.000	     0.000	     0.946	     2.879
509.00	 1414.036	-5291.897	 3287.616	  10.335	 795.159	597.936	   125.410	     7.167	  5320.347	     0.000	     0.000	     0.946	     2.984
510.00	 1414.242	-5291.171	 3287.427	   9.681	 765.879	598.358	   126.330	     6.945	  5341.374	     0.000	     0.000	     0.946	     3.075
511.00	 1414.435	-5290.473	 3287.242	   9.049	 735.755	598.760	   126.061	     6.723	  5362.496	     0.000	     0.000	     0.946	     3.153
512.00	 1414.617	-5289.803	 3287.062	   8.440	 704.931	599.142	   124.609	     6.501	  5383.712	     0.000	     0.000	     0.946	     3.215
513.00	 1414.786	-5289.161	 3286.887	   7.855	 673.572	599.503	   122.017	     6.278	  5405.023	     0.000	     0.000	     0.946	     3.260
514.00	 1414.944	-5288.549	 3286.717	   7.294	 641.861	599.843	   118.367	     6.056	  5426.427	     0.000	     0.000	     0.946	     3.286
515.00	 1415.090	-5287.967	 3286.553	   6.758	 609.988	600.162	   113.772	     5.834	  5447.926	     0.000	     0.000	     0.946	     3.292
516.00	 1415.224	-5287.414	 3286.394	   6.247	 578.150	600.462	   108.372	     5.612	  5469.519	     0.000	     0.000	     0.946	     3.279
517.00	 1415.348	-5286.890	 3286.241	   5.761	 546.535	600.741	   102.321	     5.390	  5491.207	     0.000	     0.000	     0.946	     3.247
518.00	 1415.461	-5286.396	 3286.094	   5.300	 515.323	601.000	    95.784	     5.168	  5512.992	     0.000	     0.000	     0.946	     3.198
519.00	 1415.563	-5285.931	 3285.953	   4.863	 484.673	601.241	    88.921	     4.945	  5534.875	     0.000	     0.000	     0.946	     3.133
520.00	 1415.656	-5285.494	 3285.818	   4.451	 454.725	601.463	    81.886	     4.723	  5556.858	     0.000	     0.000	     0.946	     3.055
521.00	 1415.739	-5285.084	 3285.689	   4.063	 425.908	601.667	    74.898	     4.501	  5578.944	     0.000	     0.000	     0.946	     2.886
522.00	 1415.813	-5284.700	 3285.566	   3.697	 399.022	601.854	    68.342	     4.279	  5601.136	     0.000	     0.000	     0.946	     2.697
523.00	 1415.878	-5284.341	 3285.448	   3.353	 373.865	602.026	    62.214	     4.057	  5623.436	     0.000	     0.000	     0.946	     2.532
524.00	 1415.937	-5284.005	 3285.336	   3.028	 350.215	602.183	    56.479	     3.834	  5645.849	     0.000	     0.000	     0.946	     2.388
525.00	 1415.988	-5283.690	 3285.228	   2.722	 327.875	602.327	    51.105	     3.612	  5668.377	     0.000	     0.000	     0.946	     2.262
526.00	 1416.032	-5283.395	 3285.125	   2.435	 306.678	602.457	    46.065	     3.390	  5691.024	     0.000	     0.000	     0.946	     2.153
527.00	 1416.071	-5283.120	 3285.027	   2.164	 286.477	602.576	    41.336	     3.168	  5713.794	     0.000	     0.000	     0.946	     2.057
528.00	 1416.103	-5282.864	 3284.934	   1.910	 267.141	602.684	    36.898	     2.946	  5736.691	     0.000	     0.000	     0.946	     1.973
529.00	 1416.131	-5282.625	 3284.845	   1.672	 248.555	602.780	    32.736	     2.724	  5759.719	     0.000	     0.000	     0.946	     1.900
530.00	 1416.153	-5282.404	 3284.760	   1.450	 230.617	602.867	    28.836	     2.501	  5782.882	     0.000	     0.000	     0.946	     1.837
531.00	 1416.171	-5282.200	 3284.681	   1.243	 213.232	602.944	    25.188	     2.279	  5806.187	     0.000	     0.000	     0.946	     1.783
532.00	 1416.185	-5282.012	 3284.605	   1.051	 196.318	603.012	    21.783	     2.057	  5829.637	     0.000	     0.000	     0.946	     1.736
533.00	 1416.195	-5281.840	 3284.535	   0.873	 179.797	603.072	    18.617	     1.835	  5853.237	     0.000	     0.000	     0.946	     1.697
534.00	 1416.202	-5281.683	 3284.469	   0.710	 163.591	603.124	    15.686	     1.613	  5876.994	     0.000	     0.000	     0.946	     1.669
535.00	 1416.206	-5281.542	 3284.408	   0.562	 147.550	603.168	    12.974	     1.390	  5900.914	     0.000	     0.000	     0.946	     1.653
536.00	 1416.207	-5281.416	 3284.352	   0.428	 131.626	603.205	    10.487	     1.168	  5925.002	     0.000	     0.000	     0.946	     1.639
537.00	 1416.206	-5281.304	 3284.301	   0.309	 115.801	603.236	     8.238	     0.946	  5949.265	     0.000	     0.000	     0.946	     1.627
538.00	 1416.203	-5281.208	 3284.256	   0.205	 100.052	603.260	     6.238	     0.724	  5973.711	     0.000	     0.000	     0.946	     1.618
539.00	 1416.199	-5281.127	 3284.217	   0.116	  84.353	603.279	     4.499	     0.502	  5998.345	     0.000	     0.000	     0.946	     1.611
540.00	 1416.194	-5281.060	 3284.184	   0.041	  68.675	603.293	     3.029	     0.280	  6023.177	     0.000	     0.000	     0.946	     1.608
